#Time	x(km)		y(km)		z(km)		alt(km)	    relVel		dwnrng(km)	 Q(kPa)	   Fuel(tons) dV_tot	  dV_grav	  dv_drag		 throttle	accel (g's)
-59.10	  917.850	-5526.323	 3049.252	   0.000	   0.000	0.000	     0.000	   409.500	     0.000	     0.000	     0.000	     0.000	     0.000
-58.10	  917.850	-5526.323	 3049.252	   0.000	   0.000	0.000	     0.000	   409.500	     0.000	     0.000	     0.000	     0.000	     0.000
-57.10	  917.850	-5526.323	 3049.252	   0.000	   0.000	0.000	     0.000	   409.500	     0.000	     0.000	     0.000	     0.000	     0.000
-56.10	  917.850	-5526.323	 3049.252	   0.000	   0.000	0.000	     0.000	   409.500	     0.000	     0.000	     0.000	     0.000	     0.000
-55.10	  917.850	-5526.323	 3049.252	   0.000	   0.000	0.000	     0.000	   409.500	     0.000	     0.000	     0.000	     0.000	     0.000
-54.10	  917.850	-5526.323	 3049.252	   0.000	   0.000	0.000	     0.000	   409.500	     0.000	     0.000	     0.000	     0.000	     0.000
-53.10	  917.850	-5526.323	 3049.252	   0.000	   0.000	0.000	     0.000	   409.500	     0.000	     0.000	     0.000	     0.000	     0.000
-52.10	  917.850	-5526.323	 3049.252	   0.000	   0.000	0.000	     0.000	   409.500	     0.000	     0.000	     0.000	     0.000	     0.000
-51.10	  917.850	-5526.323	 3049.252	   0.000	   0.000	0.000	     0.000	   409.500	     0.000	     0.000	     0.000	     0.000	     0.000
-50.10	  917.850	-5526.323	 3049.252	   0.000	   0.000	0.000	     0.000	   409.500	     0.000	     0.000	     0.000	     0.000	     0.000
-49.10	  917.850	-5526.323	 3049.252	   0.000	   0.000	0.000	     0.000	   409.500	     0.000	     0.000	     0.000	     0.000	     0.000
-48.10	  917.850	-5526.323	 3049.252	   0.000	   0.000	0.000	     0.000	   409.500	     0.000	     0.000	     0.000	     0.000	     0.000
-47.10	  917.850	-5526.323	 3049.252	   0.000	   0.000	0.000	     0.000	   409.500	     0.000	     0.000	     0.000	     0.000	     0.000
-46.10	  917.850	-5526.323	 3049.252	   0.000	   0.000	0.000	     0.000	   409.500	     0.000	     0.000	     0.000	     0.000	     0.000
-45.10	  917.850	-5526.323	 3049.252	   0.000	   0.000	0.000	     0.000	   409.500	     0.000	     0.000	     0.000	     0.000	     0.000
-44.10	  917.850	-5526.323	 3049.252	   0.000	   0.000	0.000	     0.000	   409.500	     0.000	     0.000	     0.000	     0.000	     0.000
-43.10	  917.850	-5526.323	 3049.252	   0.000	   0.000	0.000	     0.000	   409.500	     0.000	     0.000	     0.000	     0.000	     0.000
-42.10	  917.850	-5526.323	 3049.252	   0.000	   0.000	0.000	     0.000	   409.500	     0.000	     0.000	     0.000	     0.000	     0.000
-41.10	  917.850	-5526.323	 3049.252	   0.000	   0.000	0.000	     0.000	   409.500	     0.000	     0.000	     0.000	     0.000	     0.000
-40.10	  917.850	-5526.323	 3049.252	   0.000	   0.000	0.000	     0.000	   409.500	     0.000	     0.000	     0.000	     0.000	     0.000
-39.10	  917.850	-5526.323	 3049.252	   0.000	   0.000	0.000	     0.000	   409.500	     0.000	     0.000	     0.000	     0.000	     0.000
-38.10	  917.850	-5526.323	 3049.252	   0.000	   0.000	0.000	     0.000	   409.500	     0.000	     0.000	     0.000	     0.000	     0.000
-37.10	  917.850	-5526.323	 3049.252	   0.000	   0.000	0.000	     0.000	   409.500	     0.000	     0.000	     0.000	     0.000	     0.000
-36.10	  917.850	-5526.323	 3049.252	   0.000	   0.000	0.000	     0.000	   409.500	     0.000	     0.000	     0.000	     0.000	     0.000
-35.10	  917.850	-5526.323	 3049.252	   0.000	   0.000	0.000	     0.000	   409.500	     0.000	     0.000	     0.000	     0.000	     0.000
-34.10	  917.850	-5526.323	 3049.252	   0.000	   0.000	0.000	     0.000	   409.500	     0.000	     0.000	     0.000	     0.000	     0.000
-33.10	  917.850	-5526.323	 3049.252	   0.000	   0.000	0.000	     0.000	   409.500	     0.000	     0.000	     0.000	     0.000	     0.000
-32.10	  917.850	-5526.323	 3049.252	   0.000	   0.000	0.000	     0.000	   409.500	     0.000	     0.000	     0.000	     0.000	     0.000
-31.10	  917.850	-5526.323	 3049.252	   0.000	   0.000	0.000	     0.000	   409.500	     0.000	     0.000	     0.000	     0.000	     0.000
-30.10	  917.850	-5526.323	 3049.252	   0.000	   0.000	0.000	     0.000	   409.500	     0.000	     0.000	     0.000	     0.000	     0.000
-29.10	  917.850	-5526.323	 3049.252	   0.000	   0.000	0.000	     0.000	   409.500	     0.000	     0.000	     0.000	     0.000	     0.000
-28.10	  917.850	-5526.323	 3049.252	   0.000	   0.000	0.000	     0.000	   409.500	     0.000	     0.000	     0.000	     0.000	     0.000
-27.10	  917.850	-5526.323	 3049.252	   0.000	   0.000	0.000	     0.000	   409.500	     0.000	     0.000	     0.000	     0.000	     0.000
-26.10	  917.850	-5526.323	 3049.252	   0.000	   0.000	0.000	     0.000	   409.500	     0.000	     0.000	     0.000	     0.000	     0.000
-25.10	  917.850	-5526.323	 3049.252	   0.000	   0.000	0.000	     0.000	   409.500	     0.000	     0.000	     0.000	     0.000	     0.000
-24.10	  917.850	-5526.323	 3049.252	   0.000	   0.000	0.000	     0.000	   409.500	     0.000	     0.000	     0.000	     0.000	     0.000
-23.10	  917.850	-5526.323	 3049.252	   0.000	   0.000	0.000	     0.000	   409.500	     0.000	     0.000	     0.000	     0.000	     0.000
-22.10	  917.850	-5526.323	 3049.252	   0.000	   0.000	0.000	     0.000	   409.500	     0.000	     0.000	     0.000	     0.000	     0.000
-21.10	  917.850	-5526.323	 3049.252	   0.000	   0.000	0.000	     0.000	   409.500	     0.000	     0.000	     0.000	     0.000	     0.000
-20.10	  917.850	-5526.323	 3049.252	   0.000	   0.000	0.000	     0.000	   409.500	     0.000	     0.000	     0.000	     0.000	     0.000
-19.10	  917.850	-5526.323	 3049.252	   0.000	   0.000	0.000	     0.000	   409.500	     0.000	     0.000	     0.000	     0.000	     0.000
-18.10	  917.850	-5526.323	 3049.252	   0.000	   0.000	0.000	     0.000	   409.500	     0.000	     0.000	     0.000	     0.000	     0.000
-17.10	  917.850	-5526.323	 3049.252	   0.000	   0.000	0.000	     0.000	   409.500	     0.000	     0.000	     0.000	     0.000	     0.000
-16.10	  917.850	-5526.323	 3049.252	   0.000	   0.000	0.000	     0.000	   409.500	     0.000	     0.000	     0.000	     0.000	     0.000
-15.10	  917.850	-5526.323	 3049.252	   0.000	   0.000	0.000	     0.000	   409.500	     0.000	     0.000	     0.000	     0.000	     0.000
-14.10	  917.850	-5526.323	 3049.252	   0.000	   0.000	0.000	     0.000	   409.500	     0.000	     0.000	     0.000	     0.000	     0.000
-13.10	  917.850	-5526.323	 3049.252	   0.000	   0.000	0.000	     0.000	   409.500	     0.000	     0.000	     0.000	     0.000	     0.000
-12.10	  917.850	-5526.323	 3049.252	   0.000	   0.000	0.000	     0.000	   409.500	     0.000	     0.000	     0.000	     0.000	     0.000
-11.10	  917.850	-5526.323	 3049.252	   0.000	   0.000	0.000	     0.000	   409.500	     0.000	     0.000	     0.000	     0.000	     0.000
-10.10	  917.850	-5526.323	 3049.252	   0.000	   0.000	0.000	     0.000	   409.500	     0.000	     0.000	     0.000	     0.000	     0.000
 -9.10	  917.850	-5526.323	 3049.252	   0.000	   0.000	0.000	     0.000	   409.500	     0.000	     0.000	     0.000	     0.000	     0.000
 -8.10	  917.850	-5526.323	 3049.252	   0.000	   0.000	0.000	     0.000	   409.500	     0.000	     0.000	     0.000	     0.000	     0.000
 -7.10	  917.850	-5526.323	 3049.252	   0.000	   0.000	0.000	     0.000	   409.500	     0.000	     0.000	     0.000	     0.000	     0.000
 -6.10	  917.850	-5526.323	 3049.252	   0.000	   0.000	0.000	     0.000	   409.500	     0.000	     0.000	     0.000	     0.000	     0.000
 -5.10	  917.850	-5526.323	 3049.252	   0.000	   0.000	0.000	     0.000	   409.500	     0.000	     0.000	     0.000	     0.000	     0.000
 -4.10	  917.850	-5526.323	 3049.252	   0.000	   0.000	0.000	     0.000	   409.500	     0.000	     0.000	     0.000	     0.000	     0.000
 -3.10	  917.850	-5526.323	 3049.252	   0.000	   0.000	0.000	     0.000	   409.500	     0.000	     0.000	     0.000	     0.000	     0.000
 -2.10	  917.850	-5526.323	 3049.252	   0.000	   0.000	0.000	     0.000	   409.500	     0.000	     0.000	     0.000	     0.000	     0.000
 -1.10	  917.850	-5526.323	 3049.252	   0.000	   0.000	0.000	     0.000	   407.307	    10.996	     0.000	     0.000	     1.000	     0.000
 -0.10	  917.850	-5526.323	 3049.252	   0.000	   0.000	0.000	     0.000	   404.870	    23.266	     0.000	     0.000	     1.000	     0.000
  0.00	  917.850	-5526.323	 3049.252	   0.000	   0.000	0.000	     0.000	   404.626	    24.496	     0.000	     0.000	     1.000	     0.000
  1.00	  917.850	-5526.324	 3049.253	   0.001	   2.307	0.000	     0.003	   402.433	    35.590	     0.000	     0.000	     1.000	     0.261
  2.00	  917.851	-5526.327	 3049.254	   0.005	   4.919	0.000	     0.013	   399.996	    47.970	     0.000	     0.000	     1.000	     0.266
  3.00	  917.851	-5526.333	 3049.258	   0.011	   7.587	0.000	     0.033	   397.559	    60.406	     0.000	     0.000	     1.000	     0.272
  4.00	  917.853	-5526.341	 3049.262	   0.020	  10.312	0.000	     0.062	   395.123	    72.900	     0.000	     0.000	     1.000	     0.278
  5.00	  917.854	-5526.352	 3049.268	   0.032	  13.096	0.001	     0.101	   392.686	    85.452	     0.000	     0.000	     1.000	     0.284
  6.00	  917.856	-5526.364	 3049.275	   0.047	  15.939	0.001	     0.150	   390.249	    98.064	     0.000	     0.000	     1.000	     0.290
  7.00	  917.858	-5526.380	 3049.283	   0.064	  18.841	0.001	     0.211	   387.812	   110.735	     0.000	     0.000	     1.000	     0.296
  8.00	  917.861	-5526.398	 3049.293	   0.085	  21.765	0.001	     0.282	   385.375	   123.468	     0.000	     0.000	     1.000	     0.319
  9.00	  917.866	-5526.418	 3049.304	   0.108	  24.799	0.001	     0.366	   382.938	   136.264	     0.000	     0.000	     1.000	     0.325
 10.00	  917.873	-5526.441	 3049.316	   0.135	  27.928	0.003	     0.464	   380.502	   149.122	     0.000	     0.000	     1.000	     0.331
 11.00	  917.880	-5526.466	 3049.330	   0.164	  31.142	0.007	     0.577	   378.065	   162.046	     0.000	     0.000	     1.000	     0.337
 12.00	  917.890	-5526.493	 3049.346	   0.197	  34.438	0.011	     0.704	   375.628	   175.034	     0.000	     0.000	     1.000	     0.344
 13.00	  917.901	-5526.524	 3049.363	   0.233	  37.810	0.017	     0.847	   373.191	   188.089	     0.000	     0.000	     1.000	     0.350
 14.00	  917.913	-5526.557	 3049.382	   0.272	  41.258	0.024	     1.006	   370.754	   201.212	     0.000	     0.000	     1.000	     0.357
 15.00	  917.928	-5526.592	 3049.402	   0.314	  44.780	0.032	     1.181	   368.317	   214.404	     0.000	     0.000	     1.000	     0.364
 16.00	  917.943	-5526.631	 3049.424	   0.360	  48.375	0.041	     1.374	   365.880	   227.665	     0.000	     0.000	     1.000	     0.370
 17.00	  917.961	-5526.672	 3049.447	   0.409	  52.044	0.052	     1.584	   363.444	   240.998	     0.000	     0.000	     1.000	     0.377
 18.00	  917.980	-5526.716	 3049.472	   0.462	  55.786	0.063	     1.812	   361.007	   254.403	     0.000	     0.000	     1.000	     0.384
 19.00	  918.001	-5526.763	 3049.499	   0.519	  59.601	0.076	     2.058	   358.570	   267.882	     0.000	     0.000	     1.000	     0.392
 20.00	  918.023	-5526.813	 3049.528	   0.579	  63.491	0.090	     2.323	   356.133	   281.435	     0.000	     0.000	     1.000	     0.399
 21.00	  918.047	-5526.867	 3049.558	   0.643	  67.456	0.105	     2.607	   353.696	   295.065	     0.000	     0.000	     1.000	     0.406
 22.00	  918.073	-5526.923	 3049.590	   0.710	  71.496	0.121	     2.911	   351.259	   308.771	     0.000	     0.000	     1.000	     0.414
 23.00	  918.101	-5526.983	 3049.624	   0.782	  75.613	0.138	     3.235	   348.823	   322.557	     0.000	     0.000	     1.000	     0.422
 24.00	  918.130	-5527.045	 3049.660	   0.858	  79.808	0.157	     3.578	   346.386	   336.422	     0.000	     0.000	     1.000	     0.430
 25.00	  918.161	-5527.112	 3049.698	   0.938	  84.082	0.177	     3.942	   343.949	   350.369	     0.000	     0.000	     1.000	     0.438
 26.00	  918.194	-5527.181	 3049.738	   1.021	  88.435	0.198	     4.327	   341.512	   364.399	     0.000	     0.000	     1.000	     0.446
 27.00	  918.228	-5527.254	 3049.780	   1.110	  92.870	0.220	     4.732	   339.075	   378.512	     0.000	     0.000	     1.000	     0.454
 28.00	  918.265	-5527.331	 3049.824	   1.202	  97.386	0.243	     5.158	   336.638	   392.711	     0.000	     0.000	     1.000	     0.462
 29.00	  918.303	-5527.411	 3049.870	   1.299	 101.986	0.267	     5.604	   334.201	   406.997	     0.000	     0.000	     1.000	     0.471
 30.00	  918.343	-5527.495	 3049.918	   1.400	 106.670	0.293	     6.071	   331.765	   421.371	     0.000	     0.000	     1.000	     0.480
 31.00	  918.385	-5527.583	 3049.968	   1.506	 111.440	0.320	     6.559	   329.328	   435.834	     0.000	     0.000	     1.000	     0.488
 32.00	  918.429	-5527.675	 3050.021	   1.617	 116.297	0.348	     7.066	   326.891	   450.389	     0.000	     0.000	     1.000	     0.497
 33.00	  918.474	-5527.770	 3050.076	   1.732	 121.243	0.377	     7.594	   324.454	   465.037	     0.000	     0.000	     1.000	     0.506
 34.00	  918.522	-5527.870	 3050.133	   1.852	 126.279	0.408	     8.141	   322.017	   479.779	     0.000	     0.000	     1.000	     0.516
 35.00	  918.572	-5527.974	 3050.192	   1.977	 131.406	0.440	     8.707	   319.580	   494.616	     0.000	     0.000	     1.000	     0.525
 36.00	  918.623	-5528.081	 3050.254	   2.108	 136.625	0.473	     9.292	   317.144	   509.550	     0.000	     0.000	     1.000	     0.534
 37.00	  918.677	-5528.193	 3050.319	   2.243	 141.939	0.507	     9.894	   314.707	   524.583	     0.000	     0.000	     1.000	     0.544
 38.00	  918.732	-5528.310	 3050.385	   2.383	 147.348	0.543	    10.514	   312.270	   539.717	     0.000	     0.000	     1.000	     0.554
 39.00	  918.789	-5528.431	 3050.455	   2.529	 152.855	0.579	    11.150	   309.833	   554.952	     0.000	     0.000	     1.000	     0.564
 40.00	  918.849	-5528.556	 3050.526	   2.680	 158.460	0.618	    11.801	   307.396	   570.290	     0.000	     0.000	     1.000	     0.574
 41.00	  918.910	-5528.686	 3050.601	   2.837	 164.165	0.657	    12.466	   304.959	   585.733	     0.000	     0.000	     1.000	     0.584
 42.00	  918.974	-5528.820	 3050.678	   2.999	 169.970	0.697	    13.144	   302.522	   601.283	     0.000	     0.000	     1.000	     0.595
 43.00	  919.040	-5528.960	 3050.758	   3.167	 175.876	0.739	    13.833	   300.086	   616.941	     0.000	     0.000	     1.000	     0.605
 44.00	  919.108	-5529.104	 3050.841	   3.341	 181.883	0.783	    14.532	   297.649	   632.708	     0.000	     0.000	     1.000	     0.615
 45.00	  919.178	-5529.253	 3050.926	   3.521	 187.994	0.827	    15.239	   295.212	   648.586	     0.000	     0.000	     1.000	     0.626
 46.00	  919.250	-5529.407	 3051.015	   3.707	 194.208	0.873	    15.952	   292.775	   664.577	     0.000	     0.000	     1.000	     0.637
 47.00	  919.324	-5529.566	 3051.106	   3.899	 200.528	0.920	    16.669	   290.338	   680.683	     0.000	     0.000	     1.000	     0.648
 48.00	  919.400	-5529.731	 3051.200	   4.097	 206.954	0.968	    17.389	   287.901	   696.905	     0.000	     0.000	     1.000	     0.659
 49.00	  919.479	-5529.900	 3051.297	   4.302	 213.488	1.018	    18.109	   285.465	   713.244	     0.000	     0.000	     1.000	     0.670
 50.00	  919.560	-5530.075	 3051.398	   4.513	 220.131	1.069	    18.827	   283.028	   729.702	     0.000	     0.000	     1.000	     0.681
 51.00	  919.643	-5530.256	 3051.501	   4.730	 226.884	1.121	    19.541	   280.591	   746.281	     0.000	     0.000	     1.000	     0.692
 52.00	  919.729	-5530.442	 3051.608	   4.955	 233.748	1.175	    20.248	   278.154	   762.982	     0.000	     0.000	     1.000	     0.704
 53.00	  919.816	-5530.634	 3051.718	   5.186	 240.725	1.230	    20.945	   275.717	   779.807	     0.000	     0.000	     1.000	     0.715
 54.00	  919.907	-5530.832	 3051.831	   5.424	 247.815	1.286	    21.630	   273.280	   796.758	     0.000	     0.000	     1.000	     0.727
 55.00	  919.999	-5531.035	 3051.947	   5.669	 255.021	1.344	    22.300	   270.843	   813.835	     0.000	     0.000	     1.000	     0.739
 56.00	  920.095	-5531.245	 3052.067	   5.921	 262.537	1.404	    22.984	   268.407	   831.041	     0.000	     0.000	     1.000	     0.806
 57.00	  920.197	-5531.459	 3052.190	   6.180	 270.191	1.469	    23.654	   265.970	   848.378	     0.000	     0.000	     1.000	     0.822
 58.00	  920.303	-5531.679	 3052.316	   6.445	 277.986	1.538	    24.307	   263.533	   865.845	     0.000	     0.000	     1.000	     0.838
 59.00	  920.415	-5531.904	 3052.446	   6.718	 285.922	1.611	    24.937	   261.096	   883.446	     0.000	     0.000	     1.000	     0.855
 60.00	  920.532	-5532.134	 3052.579	   6.998	 294.002	1.688	    25.543	   258.659	   901.182	     0.000	     0.000	     1.000	     0.871
 61.00	  920.655	-5532.370	 3052.715	   7.285	 302.229	1.770	    26.122	   256.222	   919.053	     0.000	     0.000	     1.000	     0.888
 62.00	  920.784	-5532.612	 3052.854	   7.579	 310.603	1.857	    26.671	   253.786	   937.062	     0.000	     0.000	     1.000	     0.905
 63.00	  920.919	-5532.859	 3052.997	   7.881	 319.126	1.950	    27.186	   251.349	   955.210	     0.000	     0.000	     1.000	     0.923
 64.00	  921.060	-5533.112	 3053.143	   8.189	 327.802	2.047	    27.665	   248.912	   973.497	     0.000	     0.000	     1.000	     0.940
 65.00	  921.208	-5533.370	 3053.293	   8.506	 336.631	2.150	    28.106	   246.475	   991.927	     0.000	     0.000	     1.000	     0.958
 66.00	  921.362	-5533.634	 3053.446	   8.829	 345.617	2.258	    28.504	   244.038	  1010.500	     0.000	     0.000	     1.000	     0.976
 67.00	  921.523	-5533.904	 3053.603	   9.161	 354.760	2.373	    28.858	   241.601	  1029.217	     0.000	     0.000	     1.000	     0.994
 68.00	  921.692	-5534.179	 3053.763	   9.500	 364.064	2.493	    29.165	   239.164	  1048.080	     0.000	     0.000	     1.000	     1.012
 69.00	  921.867	-5534.460	 3053.927	   9.847	 373.529	2.620	    29.423	   236.728	  1067.091	     0.000	     0.000	     1.000	     1.031
 70.00	  922.051	-5534.747	 3054.095	  10.201	 383.160	2.753	    29.628	   234.291	  1086.250	     0.000	     0.000	     1.000	     1.049
 71.00	  922.241	-5535.039	 3054.266	  10.564	 392.957	2.893	    29.779	   231.854	  1105.559	     0.000	     0.000	     1.000	     1.068
 72.00	  922.440	-5535.338	 3054.440	  10.934	 402.924	3.039	    29.873	   229.417	  1125.019	     0.000	     0.000	     1.000	     1.087
 73.00	  922.647	-5535.642	 3054.619	  11.313	 413.064	3.192	    29.656	   226.980	  1144.632	     0.000	     0.000	     1.000	     1.107
 74.00	  922.862	-5535.952	 3054.801	  11.699	 423.385	3.353	    29.327	   224.543	  1164.400	     0.000	     0.000	     1.000	     1.128
 75.00	  923.086	-5536.269	 3054.987	  12.094	 433.900	3.521	    28.956	   222.107	  1184.321	     0.000	     0.000	     1.000	     1.149
 76.00	  923.319	-5536.591	 3055.177	  12.497	 444.613	3.697	    28.544	   219.670	  1204.399	     0.000	     0.000	     1.000	     1.171
 77.00	  923.561	-5536.919	 3055.370	  12.908	 455.527	3.881	    28.093	   217.233	  1224.634	     0.000	     0.000	     1.000	     1.193
 78.00	  923.812	-5537.253	 3055.567	  13.328	 466.644	4.073	    27.606	   214.796	  1245.028	     0.000	     0.000	     1.000	     1.215
 79.00	  924.072	-5537.593	 3055.769	  13.756	 477.966	4.273	    27.083	   212.359	  1265.580	     0.000	     0.000	     1.000	     1.238
 80.00	  924.342	-5537.940	 3055.974	  14.193	 489.496	4.482	    26.527	   209.922	  1286.294	     0.000	     0.000	     1.000	     1.260
 81.00	  924.623	-5538.292	 3056.183	  14.638	 501.236	4.699	    25.940	   207.485	  1307.170	     0.000	     0.000	     1.000	     1.283
 82.00	  924.913	-5538.651	 3056.396	  15.093	 513.187	4.925	    25.324	   205.049	  1328.209	     0.000	     0.000	     1.000	     1.306
 83.00	  925.214	-5539.016	 3056.613	  15.556	 525.353	5.161	    24.682	   202.612	  1349.413	     0.000	     0.000	     1.000	     1.329
 84.00	  925.526	-5539.387	 3056.834	  16.028	 537.735	5.406	    24.017	   200.175	  1370.784	     0.000	     0.000	     1.000	     1.353
 85.00	  925.848	-5539.765	 3057.060	  16.509	 550.336	5.661	    23.330	   197.738	  1392.322	     0.000	     0.000	     1.000	     1.376
 86.10	  926.216	-5540.187	 3057.312	  17.048	 564.451	5.953	    22.552	   195.058	  1416.210	     0.000	     0.000	     1.000	     1.402
 87.10	  926.562	-5540.578	 3057.546	  17.548	 577.518	6.229	    21.829	   192.621	  1438.106	     0.000	     0.000	     1.000	     1.426
 88.10	  926.921	-5540.975	 3057.784	  18.058	 590.809	6.515	    21.093	   190.184	  1460.175	     0.000	     0.000	     1.000	     1.450
 89.10	  927.291	-5541.379	 3058.027	  18.577	 604.327	6.812	    20.347	   187.747	  1482.418	     0.000	     0.000	     1.000	     1.474
 90.10	  927.673	-5541.789	 3058.273	  19.105	 618.075	7.120	    19.593	   185.310	  1504.838	     0.000	     0.000	     1.000	     1.499
 91.10	  928.068	-5542.206	 3058.524	  19.642	 632.053	7.440	    18.834	   182.873	  1527.436	     0.000	     0.000	     1.000	     1.523
 92.10	  928.475	-5542.629	 3058.779	  20.190	 646.265	7.770	    18.053	   180.436	  1550.214	     0.000	     0.000	     1.000	     1.548
 93.10	  928.896	-5543.059	 3059.039	  20.747	 660.712	8.112	    17.216	   178.000	  1573.175	     0.000	     0.000	     1.000	     1.573
 94.10	  929.329	-5543.495	 3059.303	  21.313	 675.399	8.466	    16.388	   175.563	  1596.320	     0.000	     0.000	     1.000	     1.598
 95.10	  929.777	-5543.938	 3059.571	  21.890	 690.325	8.832	    15.571	   173.126	  1619.651	     0.000	     0.000	     1.000	     1.623
 96.10	  930.238	-5544.388	 3059.844	  22.476	 705.494	9.211	    14.768	   170.689	  1643.172	     0.000	     0.000	     1.000	     1.649
 97.10	  930.713	-5544.845	 3060.121	  23.073	 720.907	9.602	    13.979	   168.252	  1666.883	     0.000	     0.000	     1.000	     1.674
 98.10	  931.202	-5545.308	 3060.403	  23.679	 736.567	10.006	    13.208	   165.815	  1690.788	     0.000	     0.000	     1.000	     1.700
 99.10	  931.706	-5545.777	 3060.689	  24.296	 752.476	10.423	    12.456	   163.379	  1714.890	     0.000	     0.000	     1.000	     1.726
100.10	  932.225	-5546.254	 3060.980	  24.923	 768.635	10.853	    11.724	   160.942	  1739.190	     0.000	     0.000	     1.000	     1.752
101.10	  932.759	-5546.738	 3061.275	  25.560	 785.213	11.297	     0.000	   158.505	  1763.741	     0.000	     0.000	     1.000	     1.798
102.10	  933.308	-5547.228	 3061.575	  26.208	 802.074	11.755	     0.000	   156.068	  1788.497	     0.000	     0.000	     1.000	     1.823
103.10	  933.873	-5547.726	 3061.880	  26.866	 819.177	12.227	     0.000	   153.631	  1813.456	     0.000	     0.000	     1.000	     1.848
104.10	  934.455	-5548.230	 3062.190	  27.535	 836.527	12.714	     0.000	   151.194	  1838.620	     0.000	     0.000	     1.000	     1.874
105.10	  935.052	-5548.742	 3062.504	  28.215	 854.126	13.216	     0.000	   148.757	  1863.995	     0.000	     0.000	     1.000	     1.900
106.10	  935.666	-5549.260	 3062.823	  28.906	 871.979	13.732	     0.000	   146.321	  1889.582	     0.000	     0.000	     1.000	     1.926
107.10	  936.297	-5549.786	 3063.147	  29.608	 890.087	14.264	     0.000	   143.884	  1915.386	     0.000	     0.000	     1.000	     1.953
108.10	  936.945	-5550.319	 3063.476	  30.321	 908.456	14.811	     0.000	   141.447	  1941.411	     0.000	     0.000	     1.000	     1.980
109.10	  937.611	-5550.859	 3063.810	  31.045	 927.088	15.374	     0.000	   139.010	  1967.660	     0.000	     0.000	     1.000	     2.007
110.10	  938.294	-5551.406	 3064.149	  31.780	 945.987	15.952	     0.000	   136.573	  1994.137	     0.000	     0.000	     1.000	     2.035
111.10	  938.995	-5551.960	 3064.492	  32.527	 965.158	16.548	     0.000	   134.136	  2020.846	     0.000	     0.000	     1.000	     2.063
112.10	  939.714	-5552.522	 3064.841	  33.284	 984.603	17.159	     0.000	   131.700	  2047.791	     0.000	     0.000	     1.000	     2.091
113.10	  940.451	-5553.091	 3065.194	  34.054	1004.327	17.788	     0.000	   129.263	  2074.976	     0.000	     0.000	     1.000	     2.120
114.10	  941.208	-5553.667	 3065.553	  34.834	1024.334	18.433	     0.000	   126.826	  2102.407	     0.000	     0.000	     1.000	     2.149
115.10	  941.984	-5554.250	 3065.917	  35.627	1044.629	19.096	     0.000	   124.389	  2130.086	     0.000	     0.000	     1.000	     2.178
116.10	  942.779	-5554.841	 3066.286	  36.431	1065.215	19.776	     0.000	   121.952	  2158.019	     0.000	     0.000	     1.000	     2.208
117.10	  943.593	-5555.439	 3066.660	  37.247	1086.097	20.475	     0.000	   119.515	  2186.211	     0.000	     0.000	     1.000	     2.238
118.10	  944.428	-5556.045	 3067.039	  38.075	1107.280	21.191	     0.000	   117.078	  2214.666	     0.000	     0.000	     1.000	     2.269
119.10	  945.283	-5556.658	 3067.423	  38.915	1128.768	21.926	     0.000	   114.642	  2243.389	     0.000	     0.000	     1.000	     2.300
120.10	  946.158	-5557.279	 3067.813	  39.767	1150.566	22.680	     0.000	   112.205	  2272.386	     0.000	     0.000	     1.000	     2.332
121.10	  947.055	-5557.908	 3068.208	  40.632	1172.679	23.452	     0.000	   109.768	  2301.661	     0.000	     0.000	     1.000	     2.364
122.10	  947.972	-5558.544	 3068.608	  41.509	1195.113	24.244	     0.000	   107.331	  2331.220	     0.000	     0.000	     1.000	     2.397
123.10	  948.911	-5559.187	 3069.014	  42.398	1217.872	25.056	     0.000	   104.894	  2361.069	     0.000	     0.000	     1.000	     2.430
124.10	  949.873	-5559.839	 3069.425	  43.300	1240.962	25.887	     0.000	   102.457	  2391.213	     0.000	     0.000	     1.000	     2.463
125.10	  950.856	-5560.498	 3069.842	  44.215	1264.389	26.739	     0.000	   100.020	  2421.658	     0.000	     0.000	     1.000	     2.498
126.10	  951.862	-5561.165	 3070.264	  45.143	1288.158	27.611	     0.000	    97.584	  2452.411	     0.000	     0.000	     1.000	     2.533
127.10	  952.890	-5561.840	 3070.692	  46.084	1312.275	28.504	     0.000	    95.147	  2483.477	     0.000	     0.000	     1.000	     2.568
128.10	  953.942	-5562.523	 3071.125	  47.038	1336.747	29.418	     0.000	    92.710	  2514.863	     0.000	     0.000	     1.000	     2.604
129.10	  955.017	-5563.214	 3071.564	  48.005	1361.579	30.353	     0.000	    90.273	  2546.575	     0.000	     0.000	     1.000	     2.641
130.10	  956.117	-5563.913	 3072.009	  48.985	1386.779	31.310	     0.000	    87.836	  2578.622	     0.000	     0.000	     1.000	     2.678
131.10	  957.240	-5564.621	 3072.460	  49.980	1412.353	32.289	     0.000	    85.399	  2611.009	     0.000	     0.000	     1.000	     2.716
132.10	  958.389	-5565.336	 3072.916	  50.988	1438.308	33.291	     0.000	    82.963	  2643.743	     0.000	     0.000	     1.000	     2.755
133.10	  959.562	-5566.060	 3073.378	  52.010	1464.652	34.315	     0.000	    80.526	  2676.834	     0.000	     0.000	     1.000	     2.794
134.10	  960.760	-5566.793	 3073.847	  53.046	1491.392	35.362	     0.000	    78.089	  2710.287	     0.000	     0.000	     1.000	     2.834
135.10	  961.985	-5567.533	 3074.321	  54.096	1518.535	36.433	     0.000	    75.652	  2744.112	     0.000	     0.000	     1.000	     2.875
136.10	  963.235	-5568.283	 3074.802	  55.161	1546.089	37.528	     0.000	    73.215	  2778.317	     0.000	     0.000	     1.000	     2.917
137.10	  964.513	-5569.041	 3075.288	  56.240	1574.064	38.646	     0.000	    70.778	  2812.910	     0.000	     0.000	     1.000	     2.960
138.10	  965.817	-5569.808	 3075.781	  57.334	1602.467	39.789	     0.000	    68.341	  2847.901	     0.000	     0.000	     1.000	     3.003
139.10	  967.148	-5570.583	 3076.280	  58.443	1631.307	40.957	     0.000	    65.905	  2883.298	     0.000	     0.000	     1.000	     3.047
140.10	  968.508	-5571.368	 3076.785	  59.567	1660.595	42.151	     0.000	    63.468	  2919.110	     0.000	     0.000	     1.000	     3.093
141.10	  969.895	-5572.161	 3077.297	  60.706	1690.338	43.369	     0.000	    61.031	  2955.349	     0.000	     0.000	     1.000	     3.139
142.10	  971.311	-5572.964	 3077.816	  61.862	1720.547	44.614	     0.000	    58.594	  2992.024	     0.000	     0.000	     1.000	     3.186
143.10	  972.757	-5573.776	 3078.341	  63.032	1751.233	45.885	     0.000	    56.157	  3029.146	     0.000	     0.000	     1.000	     3.235
144.10	  974.232	-5574.597	 3078.873	  64.219	1782.406	47.183	     0.000	    53.720	  3066.726	     0.000	     0.000	     1.000	     3.284
145.10	  975.737	-5575.428	 3079.411	  65.422	1814.077	48.508	     0.000	    51.284	  3104.775	     0.000	     0.000	     1.000	     3.335
146.10	  977.272	-5576.268	 3079.956	  66.642	1846.258	49.861	     0.000	    48.847	  3143.305	     0.000	     0.000	     1.000	     3.386
147.10	  978.838	-5577.118	 3080.509	  67.878	1878.961	51.242	     0.000	    46.410	  3182.329	     0.000	     0.000	     1.000	     3.439
148.10	  980.436	-5577.978	 3081.068	  69.131	1912.198	52.651	     0.000	    43.973	  3221.859	     0.000	     0.000	     1.000	     3.494
149.10	  982.066	-5578.848	 3081.634	  70.402	1945.982	54.089	     0.000	    41.536	  3261.908	     0.000	     0.000	     1.000	     3.549
150.10	  983.728	-5579.728	 3082.208	  71.689	1976.242	55.556	     0.000	    39.343	  3298.408	     0.000	     0.000	     0.000	     0.978
151.10	  985.399	-5580.605	 3082.780	  72.977	1968.926	57.034	     0.000	    39.343	  3298.408	     0.000	     0.000	     0.000	     2.665
152.10	  987.069	-5581.473	 3083.348	  74.255	1962.718	58.511	     0.000	    39.343	  3298.408	     0.000	     0.000	     0.000	     0.977
153.10	  988.737	-5582.333	 3083.911	  75.524	1956.538	59.986	     0.000	    39.343	  3298.408	     0.000	     0.000	     0.000	     0.977
154.10	  990.403	-5583.185	 3084.469	  76.783	1950.384	61.462	     0.000	    39.343	  3298.408	     0.000	     0.000	     0.000	     0.976
155.10	  992.067	-5584.029	 3085.022	  78.034	1944.257	62.936	     0.000	    39.343	  3298.408	     0.000	     0.000	     0.000	     0.976
156.10	  993.730	-5584.864	 3085.571	  79.275	1938.158	64.410	     0.000	    39.343	  3298.408	     0.000	     0.000	     0.000	     0.976
157.10	  995.392	-5585.692	 3086.116	  80.508	1932.086	65.883	     0.000	    39.343	  3298.408	     0.000	     0.000	     0.000	     0.975
158.10	  997.052	-5586.512	 3086.656	  81.731	1926.042	67.355	     0.000	    39.343	  3298.408	     0.000	     0.000	     0.000	     0.975
159.10	  998.710	-5587.324	 3087.191	  82.946	1920.025	68.827	     0.000	    39.343	  3298.408	     0.000	     0.000	     0.000	     0.975
160.10	 1000.367	-5588.128	 3087.722	  84.151	1914.037	70.297	     0.000	    39.343	  3298.408	     0.000	     0.000	     0.000	     0.974
161.10	 1002.022	-5588.924	 3088.248	  85.348	1908.077	71.768	     0.000	    39.343	  3298.408	     0.000	     0.000	     0.000	     0.974
162.10	 1003.675	-5589.712	 3088.770	  86.536	1902.145	73.237	     0.000	    39.343	  3298.408	     0.000	     0.000	     0.000	     0.973
163.10	 1005.327	-5590.492	 3089.287	  87.714	1896.242	74.706	     0.000	    39.343	  3298.408	     0.000	     0.000	     0.000	     0.973
164.10	 1006.978	-5591.265	 3089.799	  88.884	1890.368	76.174	     0.000	    39.343	  3298.408	     0.000	     0.000	     0.000	     0.973
165.10	 1008.626	-5592.029	 3090.307	  90.044	1884.523	77.641	     0.000	    39.343	  3298.408	     0.000	     0.000	     0.000	     0.972
166.10	 1010.273	-5592.785	 3090.811	  91.196	1878.707	79.108	     0.000	    39.343	  3298.408	     0.000	     0.000	     0.000	     0.972
167.10	 1011.919	-5593.533	 3091.309	  92.339	1872.921	80.574	     0.000	    39.343	  3298.408	     0.000	     0.000	     0.000	     0.972
168.10	 1013.563	-5594.273	 3091.804	  93.473	1867.165	82.040	     0.000	    39.343	  3298.408	     0.000	     0.000	     0.000	     0.971
169.10	 1015.205	-5595.005	 3092.294	  94.598	1861.438	83.504	     0.000	    39.343	  3298.408	     0.000	     0.000	     0.000	     0.971
170.10	 1016.846	-5595.730	 3092.779	  95.713	1855.741	84.969	     0.000	    39.343	  3298.408	     0.000	     0.000	     0.000	     0.971
171.10	 1018.485	-5596.446	 3093.259	  96.820	1850.075	86.432	     0.000	    39.343	  3298.408	     0.000	     0.000	     0.000	     0.970
172.10	 1020.123	-5597.154	 3093.736	  97.918	1844.439	87.895	     0.000	    39.343	  3298.408	     0.000	     0.000	     0.000	     0.970
173.10	 1021.759	-5597.855	 3094.207	  99.007	1838.834	89.357	     0.000	    39.343	  3298.408	     0.000	     0.000	     0.000	     0.970
174.10	 1023.393	-5598.547	 3094.674	 100.087	1833.260	90.819	     0.000	    39.343	  3298.408	     0.000	     0.000	     0.000	     0.969
175.10	 1025.026	-5599.232	 3095.137	 101.158	1827.717	92.280	     0.000	    39.343	  3298.408	     0.000	     0.000	     0.000	     0.969
176.10	 1026.657	-5599.909	 3095.595	 102.221	1822.206	93.740	     0.000	    39.343	  3298.408	     0.000	     0.000	     0.000	     0.969
177.10	 1028.287	-5600.577	 3096.048	 103.274	1816.726	95.200	     0.000	    39.343	  3298.408	     0.000	     0.000	     0.000	     0.968
178.10	 1029.915	-5601.238	 3096.497	 104.318	1811.278	96.659	     0.000	    39.343	  3298.408	     0.000	     0.000	     0.000	     0.968
179.10	 1031.541	-5601.891	 3096.942	 105.354	1805.863	98.117	     0.000	    39.343	  3298.408	     0.000	     0.000	     0.000	     0.968
180.10	 1033.166	-5602.536	 3097.382	 106.380	1800.479	99.575	     0.000	    39.343	  3298.408	     0.000	     0.000	     0.000	     0.967
181.10	 1034.789	-5603.173	 3097.817	 107.398	1795.128	101.033	     0.000	    39.343	  3298.408	     0.000	     0.000	     0.000	     0.967
182.10	 1036.411	-5603.802	 3098.248	 108.406	1789.810	102.490	     0.000	    39.343	  3298.408	     0.000	     0.000	     0.000	     0.967
183.10	 1038.031	-5604.423	 3098.674	 109.406	1784.525	103.946	     0.000	    39.343	  3298.408	     0.000	     0.000	     0.000	     0.967
184.10	 1039.649	-5605.036	 3099.096	 110.397	1779.273	105.401	     0.000	    39.343	  3298.408	     0.000	     0.000	     0.000	     0.966
185.10	 1041.266	-5605.642	 3099.513	 111.379	1774.055	106.857	     0.000	    39.343	  3298.408	     0.000	     0.000	     0.000	     0.966
186.10	 1042.882	-5606.239	 3099.926	 112.352	1768.870	108.311	     0.000	    39.343	  3298.408	     0.000	     0.000	     0.000	     0.966
187.10	 1044.495	-5606.829	 3100.334	 113.316	1763.719	109.765	     0.000	    39.343	  3298.408	     0.000	     0.000	     0.000	     0.965
188.10	 1046.107	-5607.410	 3100.738	 114.271	1758.603	111.218	     0.000	    39.343	  3298.408	     0.000	     0.000	     0.000	     0.965
189.10	 1047.718	-5607.984	 3101.137	 115.217	1753.521	112.671	     0.000	    39.343	  3298.408	     0.000	     0.000	     0.000	     0.965
190.10	 1049.326	-5608.550	 3101.532	 116.154	1748.473	114.124	     0.000	    39.343	  3298.408	     0.000	     0.000	     0.000	     0.965
191.10	 1050.934	-5609.108	 3101.922	 117.083	1743.461	115.575	     0.000	    39.343	  3298.408	     0.000	     0.000	     0.000	     0.964
192.10	 1052.539	-5609.658	 3102.307	 118.002	1738.484	117.027	     0.000	    39.343	  3298.408	     0.000	     0.000	     0.000	     0.964
193.10	 1054.143	-5610.200	 3102.688	 118.913	1733.542	118.477	     0.000	    39.343	  3298.408	     0.000	     0.000	     0.000	     0.964
194.10	 1055.746	-5610.734	 3103.065	 119.815	1728.636	119.928	     0.000	    39.343	  3298.408	     0.000	     0.000	     0.000	     0.963
195.10	 1057.346	-5611.260	 3103.437	 120.708	1723.766	121.377	     0.000	    39.343	  3298.408	     0.000	     0.000	     0.000	     0.963
196.10	 1058.946	-5611.779	 3103.805	 121.592	1718.932	122.827	     0.000	    39.343	  3298.408	     0.000	     0.000	     0.000	     0.963
197.10	 1060.543	-5612.289	 3104.168	 122.467	1714.135	124.275	     0.000	    39.343	  3298.408	     0.000	     0.000	     0.000	     0.963
198.10	 1062.139	-5612.792	 3104.527	 123.333	1709.374	125.723	     0.000	    39.343	  3298.408	     0.000	     0.000	     0.000	     0.962
199.10	 1063.734	-5613.287	 3104.881	 124.190	1704.650	127.171	     0.000	    39.343	  3298.408	     0.000	     0.000	     0.000	     0.962
200.10	 1065.326	-5613.774	 3105.230	 125.039	1699.963	128.618	     0.000	    39.343	  3298.408	     0.000	     0.000	     0.000	     0.962
201.10	 1066.918	-5614.253	 3105.575	 125.879	1695.314	130.065	     0.000	    39.343	  3298.408	     0.000	     0.000	     0.000	     0.962
202.10	 1068.507	-5614.724	 3105.916	 126.709	1690.703	131.511	     0.000	    39.343	  3298.408	     0.000	     0.000	     0.000	     0.961
203.10	 1070.095	-5615.187	 3106.252	 127.531	1686.129	132.957	     0.000	    39.343	  3298.408	     0.000	     0.000	     0.000	     0.961
204.10	 1071.681	-5615.643	 3106.584	 128.344	1681.594	134.403	     0.000	    39.343	  3298.408	     0.000	     0.000	     0.000	     0.961
205.10	 1073.266	-5616.090	 3106.911	 129.148	1677.097	135.847	     0.000	    39.343	  3298.408	     0.000	     0.000	     0.000	     0.961
206.10	 1074.849	-5616.530	 3107.233	 129.944	1672.639	137.292	     0.000	    39.343	  3298.408	     0.000	     0.000	     0.000	     0.960
207.10	 1076.431	-5616.962	 3107.551	 130.730	1668.220	138.736	     0.000	    39.343	  3298.408	     0.000	     0.000	     0.000	     0.960
208.10	 1078.011	-5617.386	 3107.865	 131.507	1663.841	140.179	     0.000	    39.343	  3298.408	     0.000	     0.000	     0.000	     0.960
209.10	 1079.589	-5617.802	 3108.174	 132.276	1659.501	141.622	     0.000	    39.343	  3298.408	     0.000	     0.000	     0.000	     0.960
210.10	 1081.166	-5618.210	 3108.479	 133.036	1655.200	143.065	     0.000	    39.343	  3298.408	     0.000	     0.000	     0.000	     0.960
211.10	 1082.741	-5618.611	 3108.779	 133.787	1650.940	144.507	     0.000	    39.343	  3298.408	     0.000	     0.000	     0.000	     0.959
212.10	 1084.314	-5619.004	 3109.075	 134.529	1646.720	145.949	     0.000	    39.343	  3298.408	     0.000	     0.000	     0.000	     0.959
213.10	 1085.886	-5619.388	 3109.366	 135.262	1642.541	147.390	     0.000	    39.343	  3298.408	     0.000	     0.000	     0.000	     0.959
214.10	 1087.456	-5619.765	 3109.653	 135.987	1638.402	148.831	     0.000	    39.343	  3298.408	     0.000	     0.000	     0.000	     0.959
215.10	 1089.025	-5620.134	 3109.935	 136.702	1634.305	150.272	     0.000	    39.343	  3298.408	     0.000	     0.000	     0.000	     0.958
216.10	 1090.592	-5620.495	 3110.213	 137.409	1630.249	151.712	     0.000	    39.343	  3298.408	     0.000	     0.000	     0.000	     0.958
217.10	 1092.157	-5620.849	 3110.486	 138.107	1626.235	153.152	     0.000	    39.343	  3298.408	     0.000	     0.000	     0.000	     0.958
218.10	 1093.721	-5621.194	 3110.755	 138.796	1622.263	154.591	     0.000	    39.343	  3298.408	     0.000	     0.000	     0.000	     0.958
219.10	 1095.283	-5621.532	 3111.019	 139.476	1618.333	156.030	     0.000	    39.343	  3298.408	     0.000	     0.000	     0.000	     0.958
220.10	 1096.843	-5621.862	 3111.279	 140.148	1614.445	157.469	     0.000	    39.343	  3298.408	     0.000	     0.000	     0.000	     0.957
221.10	 1098.402	-5622.184	 3111.534	 140.810	1610.600	158.907	     0.000	    39.343	  3298.408	     0.000	     0.000	     0.000	     0.957
222.10	 1099.959	-5622.498	 3111.785	 141.464	1606.798	160.345	     0.000	    39.343	  3298.408	     0.000	     0.000	     0.000	     0.957
223.10	 1101.515	-5622.804	 3112.031	 142.109	1603.040	161.782	     0.000	    39.343	  3298.408	     0.000	     0.000	     0.000	     0.957
224.10	 1103.069	-5623.103	 3112.273	 142.745	1599.325	163.219	     0.000	    39.343	  3298.408	     0.000	     0.000	     0.000	     0.957
225.10	 1104.621	-5623.394	 3112.511	 143.372	1595.653	164.656	     0.000	    39.343	  3298.408	     0.000	     0.000	     0.000	     0.957
226.10	 1106.172	-5623.677	 3112.744	 143.990	1592.026	166.093	     0.000	    39.343	  3298.408	     0.000	     0.000	     0.000	     0.956
227.10	 1107.721	-5623.952	 3112.972	 144.600	1588.443	167.529	     0.000	    39.343	  3298.408	     0.000	     0.000	     0.000	     0.956
228.10	 1109.269	-5624.219	 3113.196	 145.201	1584.905	168.964	     0.000	    39.343	  3298.408	     0.000	     0.000	     0.000	     0.956
229.10	 1110.815	-5624.478	 3113.416	 145.793	1581.411	170.400	     0.000	    39.343	  3298.408	     0.000	     0.000	     0.000	     0.956
230.10	 1112.360	-5624.730	 3113.631	 146.376	1581.675	171.835	     0.000	    39.262	  3302.118	     0.000	     0.000	     1.000	     3.551
231.10	 1113.884	-5624.971	 3113.839	 146.944	1540.900	173.255	     0.000	    38.450	  3339.468	     0.000	     0.000	     1.000	     4.276
232.10	 1115.370	-5625.198	 3114.038	 147.490	1499.707	174.639	     0.000	    37.637	  3377.281	     0.000	     0.000	     1.000	     4.318
233.10	 1116.816	-5625.412	 3114.227	 148.013	1458.087	175.989	     0.000	    36.825	  3415.569	     0.000	     0.000	     1.000	     4.362
234.10	 1118.224	-5625.612	 3114.407	 148.514	1416.029	177.303	     0.000	    36.013	  3454.344	     0.000	     0.000	     1.000	     4.406
235.10	 1119.591	-5625.800	 3114.577	 148.992	1373.522	178.582	     0.000	    35.200	  3493.619	     0.000	     0.000	     1.000	     4.452
236.10	 1120.918	-5625.974	 3114.739	 149.448	1330.556	179.823	     0.000	    34.388	  3533.407	     0.000	     0.000	     1.000	     4.499
237.10	 1122.203	-5626.135	 3114.891	 149.882	1287.118	181.028	     0.000	    33.576	  3573.722	     0.000	     0.000	     1.000	     4.547
238.10	 1123.447	-5626.284	 3115.034	 150.293	1243.197	182.194	     0.000	    32.764	  3614.577	     0.000	     0.000	     1.000	     4.596
239.10	 1124.649	-5626.420	 3115.168	 150.682	1198.780	183.323	     0.000	    31.951	  3655.987	     0.000	     0.000	     1.000	     4.647
240.10	 1125.807	-5626.543	 3115.292	 151.049	1153.855	184.412	     0.000	    31.139	  3697.968	     0.000	     0.000	     1.000	     4.699
241.10	 1126.922	-5626.655	 3115.408	 151.394	1108.409	185.462	     0.000	    30.327	  3740.535	     0.000	     0.000	     1.000	     4.752
242.10	 1127.993	-5626.754	 3115.516	 151.716	1062.428	186.472	     0.000	    29.514	  3783.706	     0.000	     0.000	     1.000	     4.807
243.10	 1129.019	-5626.842	 3115.614	 152.017	1015.898	187.441	     0.000	    28.702	  3827.497	     0.000	     0.000	     1.000	     4.863
244.10	 1130.000	-5626.918	 3115.704	 152.296	 968.805	188.369	     0.000	    27.890	  3871.926	     0.000	     0.000	     1.000	     4.920
245.10	 1130.935	-5626.983	 3115.785	 152.554	 925.677	189.255	     0.000	    27.159	  3912.475	     0.000	     0.000	     0.000	     0.954
246.10	 1131.855	-5627.039	 3115.861	 152.798	 923.211	190.126	     0.000	    27.159	  3912.475	     0.000	     0.000	     0.000	     0.954
247.10	 1132.772	-5627.087	 3115.933	 153.034	 920.830	190.996	     0.000	    27.159	  3912.475	     0.000	     0.000	     0.000	     0.954
248.10	 1133.689	-5627.127	 3115.999	 153.260	 918.536	191.867	     0.000	    27.159	  3912.475	     0.000	     0.000	     0.000	     0.954
249.10	 1134.603	-5627.160	 3116.062	 153.477	 916.329	192.737	     0.000	    27.159	  3912.475	     0.000	     0.000	     0.000	     0.954
250.10	 1135.516	-5627.185	 3116.120	 153.685	 914.208	193.607	     0.000	    27.159	  3912.475	     0.000	     0.000	     0.000	     0.954
251.10	 1136.427	-5627.201	 3116.173	 153.883	 912.176	194.477	     0.000	    27.159	  3912.475	     0.000	     0.000	     0.000	     0.953
252.10	 1137.337	-5627.210	 3116.222	 154.073	 910.232	195.347	     0.000	    27.159	  3912.475	     0.000	     0.000	     0.000	     0.953
253.10	 1138.245	-5627.211	 3116.267	 154.254	 908.378	196.217	     0.000	    27.159	  3912.475	     0.000	     0.000	     0.000	     0.953
254.10	 1139.151	-5627.204	 3116.307	 154.426	 906.613	197.087	     0.000	    27.159	  3912.475	     0.000	     0.000	     0.000	     0.953
255.10	 1140.056	-5627.189	 3116.343	 154.588	 904.938	197.957	     0.000	    27.159	  3912.475	     0.000	     0.000	     0.000	     0.953
256.10	 1140.959	-5627.167	 3116.374	 154.742	 903.353	198.827	     0.000	    27.159	  3912.475	     0.000	     0.000	     0.000	     0.953
257.10	 1141.861	-5627.136	 3116.401	 154.886	 901.860	199.697	     0.000	    27.159	  3912.475	     0.000	     0.000	     0.000	     0.953
258.10	 1142.761	-5627.097	 3116.423	 155.021	 900.458	200.567	     0.000	    27.159	  3912.475	     0.000	     0.000	     0.000	     0.953
259.10	 1143.659	-5627.051	 3116.441	 155.147	 899.147	201.436	     0.000	    27.159	  3912.475	     0.000	     0.000	     0.000	     0.953
260.10	 1144.556	-5626.997	 3116.454	 155.265	 897.929	202.306	     0.000	    27.159	  3912.475	     0.000	     0.000	     0.000	     0.953
261.10	 1145.451	-5626.935	 3116.463	 155.373	 896.804	203.175	     0.000	    27.159	  3912.475	     0.000	     0.000	     0.000	     0.953
262.10	 1146.344	-5626.865	 3116.468	 155.472	 895.772	204.045	     0.000	    27.159	  3912.475	     0.000	     0.000	     0.000	     0.953
263.10	 1147.236	-5626.787	 3116.468	 155.562	 894.833	204.914	     0.000	    27.159	  3912.475	     0.000	     0.000	     0.000	     0.953
264.10	 1148.126	-5626.701	 3116.463	 155.643	 893.987	205.784	     0.000	    27.159	  3912.475	     0.000	     0.000	     0.000	     0.953
265.10	 1149.015	-5626.607	 3116.454	 155.714	 893.235	206.653	     0.000	    27.159	  3912.475	     0.000	     0.000	     0.000	     0.953
266.10	 1149.902	-5626.506	 3116.441	 155.777	 892.578	207.523	     0.000	    27.159	  3912.475	     0.000	     0.000	     0.000	     0.953
267.10	 1150.787	-5626.396	 3116.423	 155.831	 892.014	208.392	     0.000	    27.159	  3912.475	     0.000	     0.000	     0.000	     0.953
268.10	 1151.671	-5626.279	 3116.401	 155.875	 891.545	209.261	     0.000	    27.159	  3912.475	     0.000	     0.000	     0.000	     0.953
269.10	 1152.553	-5626.154	 3116.374	 155.911	 891.171	210.131	     0.000	    27.159	  3912.475	     0.000	     0.000	     0.000	     0.953
270.10	 1153.433	-5626.021	 3116.343	 155.937	 890.891	211.000	     0.000	    27.159	  3912.475	     0.000	     0.000	     0.000	     0.953
271.10	 1154.312	-5625.880	 3116.308	 155.954	 890.706	211.869	     0.000	    27.159	  3912.475	     0.000	     0.000	     0.000	     0.953
272.10	 1155.189	-5625.731	 3116.268	 155.963	 890.615	212.739	     0.000	    27.159	  3912.475	     0.000	     0.000	     0.000	     0.953
273.10	 1156.065	-5625.575	 3116.223	 155.962	 890.620	213.608	     0.000	    27.159	  3912.475	     0.000	     0.000	     0.000	     0.953
274.10	 1156.939	-5625.410	 3116.174	 155.952	 890.719	214.477	     0.000	    27.159	  3912.475	     0.000	     0.000	     0.000	     0.953
275.10	 1157.811	-5625.237	 3116.121	 155.933	 890.913	215.347	     0.000	    27.159	  3912.475	     0.000	     0.000	     0.000	     0.953
276.10	 1158.682	-5625.057	 3116.063	 155.905	 891.202	216.216	     0.000	    27.159	  3912.475	     0.000	     0.000	     0.000	     0.953
277.10	 1159.551	-5624.869	 3116.001	 155.868	 891.586	217.085	     0.000	    27.159	  3912.475	     0.000	     0.000	     0.000	     0.953
278.10	 1160.418	-5624.673	 3115.934	 155.822	 892.064	217.955	     0.000	    27.159	  3912.475	     0.000	     0.000	     0.000	     0.953
279.10	 1161.284	-5624.469	 3115.863	 155.767	 892.636	218.824	     0.000	    27.159	  3912.475	     0.000	     0.000	     0.000	     0.953
280.10	 1162.148	-5624.257	 3115.787	 155.702	 893.303	219.694	     0.000	    27.159	  3912.475	     0.000	     0.000	     0.000	     0.953
281.10	 1163.011	-5624.037	 3115.707	 155.629	 894.063	220.563	     0.000	    27.159	  3912.475	     0.000	     0.000	     0.000	     0.953
282.10	 1163.872	-5623.810	 3115.623	 155.546	 894.918	221.433	     0.000	    27.159	  3912.475	     0.000	     0.000	     0.000	     0.953
283.10	 1164.731	-5623.574	 3115.534	 155.455	 895.866	222.302	     0.000	    27.159	  3912.475	     0.000	     0.000	     0.000	     0.953
284.10	 1165.589	-5623.331	 3115.440	 155.354	 896.907	223.172	     0.000	    27.159	  3912.475	     0.000	     0.000	     0.000	     0.953
285.10	 1166.445	-5623.080	 3115.342	 155.245	 898.041	224.041	     0.000	    27.159	  3912.475	     0.000	     0.000	     0.000	     0.953
286.10	 1167.300	-5622.820	 3115.240	 155.126	 899.268	224.911	     0.000	    27.159	  3912.475	     0.000	     0.000	     0.000	     0.953
287.10	 1168.152	-5622.553	 3115.133	 154.998	 900.587	225.781	     0.000	    27.159	  3912.475	     0.000	     0.000	     0.000	     0.953
288.10	 1169.004	-5622.278	 3115.022	 154.861	 901.997	226.650	     0.000	    27.159	  3912.475	     0.000	     0.000	     0.000	     0.953
289.10	 1169.853	-5621.996	 3114.906	 154.715	 903.500	227.520	     0.000	    27.159	  3912.475	     0.000	     0.000	     0.000	     0.953
290.10	 1170.701	-5621.705	 3114.786	 154.560	 905.093	228.390	     0.000	    27.159	  3912.475	     0.000	     0.000	     0.000	     0.953
291.10	 1171.548	-5621.406	 3114.661	 154.396	 906.776	229.260	     0.000	    27.159	  3912.475	     0.000	     0.000	     0.000	     0.953
292.10	 1172.392	-5621.100	 3114.532	 154.223	 908.550	230.130	     0.000	    27.159	  3912.475	     0.000	     0.000	     0.000	     0.953
293.10	 1173.236	-5620.786	 3114.399	 154.040	 910.413	231.000	     0.000	    27.159	  3912.475	     0.000	     0.000	     0.000	     0.953
294.10	 1174.077	-5620.463	 3114.261	 153.849	 912.365	231.870	     0.000	    27.159	  3912.475	     0.000	     0.000	     0.000	     0.953
295.10	 1174.917	-5620.133	 3114.118	 153.648	 914.406	232.740	     0.000	    27.159	  3912.475	     0.000	     0.000	     0.000	     0.954
296.10	 1175.755	-5619.795	 3113.971	 153.439	 916.534	233.610	     0.000	    27.159	  3912.475	     0.000	     0.000	     0.000	     0.954
297.10	 1176.592	-5619.449	 3113.820	 153.220	 918.750	234.481	     0.000	    27.159	  3912.475	     0.000	     0.000	     0.000	     0.954
298.10	 1177.427	-5619.096	 3113.664	 152.992	 921.053	235.351	     0.000	    27.159	  3912.475	     0.000	     0.000	     0.000	     0.954
299.00	 1178.177	-5618.771	 3113.520	 152.780	 923.198	236.135	     0.000	    27.159	  3912.475	     0.000	     0.000	     0.000	     0.954
300.00	 1179.009	-5618.402	 3113.356	 152.535	 925.664	237.005	     0.000	    27.159	  3912.475	     0.000	     0.000	     0.000	     0.954
301.00	 1179.839	-5618.025	 3113.187	 152.281	 928.214	237.876	     0.000	    27.159	  3912.475	     0.000	     0.000	     0.000	     0.954
302.00	 1180.668	-5617.641	 3113.014	 152.018	 930.848	238.747	     0.000	    27.159	  3912.475	     0.000	     0.000	     0.000	     0.954
303.00	 1181.495	-5617.248	 3112.836	 151.745	 933.566	239.618	     0.000	    27.159	  3912.475	     0.000	     0.000	     0.000	     0.954
304.00	 1182.320	-5616.848	 3112.654	 151.464	 936.367	240.489	     0.000	    27.159	  3912.475	     0.000	     0.000	     0.000	     0.954
305.00	 1183.144	-5616.440	 3112.468	 151.174	 939.250	241.360	     0.000	    27.159	  3912.475	     0.000	     0.000	     0.000	     0.954
306.00	 1183.966	-5616.024	 3112.277	 150.874	 942.214	242.231	     0.000	    27.159	  3912.475	     0.000	     0.000	     0.000	     0.954
307.00	 1184.786	-5615.600	 3112.081	 150.566	 945.259	243.103	     0.000	    27.159	  3912.475	     0.000	     0.000	     0.000	     0.954
308.00	 1185.605	-5615.168	 3111.881	 150.248	 948.383	243.974	     0.000	    27.159	  3912.475	     0.000	     0.000	     0.000	     0.954
309.00	 1186.423	-5614.728	 3111.677	 149.921	 951.587	244.846	     0.000	    27.159	  3912.475	     0.000	     0.000	     0.000	     0.955
310.00	 1187.238	-5614.280	 3111.468	 149.586	 954.869	245.718	     0.000	    27.159	  3912.475	     0.000	     0.000	     0.000	     0.955
311.00	 1188.052	-5613.825	 3111.255	 149.241	 958.229	246.589	     0.000	    27.159	  3912.475	     0.000	     0.000	     0.000	     0.955
312.00	 1188.865	-5613.361	 3111.037	 148.887	 961.665	247.462	     0.000	    27.159	  3912.475	     0.000	     0.000	     0.000	     0.955
313.00	 1189.675	-5612.890	 3110.815	 148.523	 965.178	248.334	     0.000	    27.159	  3912.475	     0.000	     0.000	     0.000	     0.955
314.00	 1190.484	-5612.411	 3110.588	 148.151	 968.765	249.206	     0.000	    27.159	  3912.475	     0.000	     0.000	     0.000	     0.955
315.00	 1191.292	-5611.923	 3110.357	 147.770	 972.428	250.078	     0.000	    27.159	  3912.475	     0.000	     0.000	     0.000	     0.955
316.00	 1192.098	-5611.428	 3110.122	 147.380	 976.163	250.951	     0.000	    27.159	  3912.475	     0.000	     0.000	     0.000	     0.955
317.00	 1192.902	-5610.925	 3109.881	 146.980	 979.972	251.824	     0.000	    27.159	  3912.475	     0.000	     0.000	     0.000	     0.955
318.00	 1193.704	-5610.415	 3109.637	 146.572	 983.853	252.697	     0.000	    27.159	  3912.475	     0.000	     0.000	     0.000	     0.956
319.00	 1194.505	-5609.896	 3109.388	 146.154	 987.805	253.570	     0.000	    27.159	  3912.475	     0.000	     0.000	     0.000	     0.956
320.00	 1195.305	-5609.369	 3109.135	 145.727	 991.827	254.443	     0.000	    27.159	  3912.475	     0.000	     0.000	     0.000	     0.956
321.00	 1196.102	-5608.835	 3108.877	 145.291	 995.920	255.317	     0.000	    27.159	  3912.475	     0.000	     0.000	     0.000	     0.956
322.00	 1196.898	-5608.292	 3108.614	 144.846	1000.080	256.190	     0.000	    27.159	  3912.475	     0.000	     0.000	     0.000	     0.956
323.00	 1197.693	-5607.742	 3108.347	 144.392	1004.309	257.064	     0.000	    27.159	  3912.475	     0.000	     0.000	     0.000	     0.956
324.00	 1198.486	-5607.183	 3108.076	 143.929	1008.606	257.938	     0.000	    27.159	  3912.475	     0.000	     0.000	     0.000	     0.956
325.00	 1199.277	-5606.617	 3107.800	 143.457	1012.968	258.812	     0.000	    27.159	  3912.475	     0.000	     0.000	     0.000	     0.956
326.00	 1200.066	-5606.043	 3107.520	 142.975	1017.396	259.686	     0.000	    27.159	  3912.475	     0.000	     0.000	     0.000	     0.957
327.00	 1200.854	-5605.461	 3107.236	 142.485	1021.889	260.561	     0.000	    27.159	  3912.475	     0.000	     0.000	     0.000	     0.957
328.00	 1201.640	-5604.871	 3106.946	 141.985	1026.446	261.436	     0.000	    27.159	  3912.475	     0.000	     0.000	     0.000	     0.957
329.00	 1202.425	-5604.273	 3106.653	 141.476	1031.066	262.311	     0.000	    27.159	  3912.475	     0.000	     0.000	     0.000	     0.957
330.00	 1203.208	-5603.667	 3106.355	 140.958	1035.749	263.186	     0.000	    27.159	  3912.475	     0.000	     0.000	     0.000	     0.957
331.00	 1203.989	-5603.054	 3106.052	 140.432	1040.493	264.061	     0.000	    27.159	  3912.475	     0.000	     0.000	     0.000	     0.957
332.00	 1204.769	-5602.432	 3105.745	 139.895	1045.298	264.937	     0.000	    27.159	  3912.475	     0.000	     0.000	     0.000	     0.958
333.00	 1205.547	-5601.802	 3105.434	 139.350	1050.163	265.812	     0.000	    27.159	  3912.475	     0.000	     0.000	     0.000	     0.958
334.00	 1206.323	-5601.165	 3105.118	 138.796	1055.087	266.688	     0.000	    27.159	  3912.475	     0.000	     0.000	     0.000	     0.958
335.00	 1207.098	-5600.520	 3104.797	 138.232	1060.069	267.565	     0.000	    27.159	  3912.475	     0.000	     0.000	     0.000	     0.958
336.00	 1207.871	-5599.866	 3104.472	 137.660	1065.110	268.441	     0.000	    27.159	  3912.475	     0.000	     0.000	     0.000	     0.958
337.00	 1208.643	-5599.205	 3104.143	 137.078	1070.207	269.318	     0.000	    27.159	  3912.475	     0.000	     0.000	     0.000	     0.958
338.00	 1209.413	-5598.536	 3103.809	 136.487	1075.361	270.195	     0.000	    27.159	  3912.475	     0.000	     0.000	     0.000	     0.959
339.00	 1210.181	-5597.859	 3103.471	 135.887	1080.570	271.072	     0.000	    27.159	  3912.475	     0.000	     0.000	     0.000	     0.959
340.00	 1210.948	-5597.174	 3103.128	 135.278	1085.834	271.949	     0.000	    27.159	  3912.475	     0.000	     0.000	     0.000	     0.959
341.00	 1211.713	-5596.481	 3102.781	 134.660	1091.151	272.827	     0.000	    27.159	  3912.475	     0.000	     0.000	     0.000	     0.959
342.00	 1212.476	-5595.780	 3102.429	 134.033	1096.522	273.704	     0.000	    27.159	  3912.475	     0.000	     0.000	     0.000	     0.959
343.00	 1213.238	-5595.071	 3102.073	 133.396	1101.946	274.582	     0.000	    27.159	  3912.475	     0.000	     0.000	     0.000	     0.959
344.00	 1213.998	-5594.354	 3101.712	 132.751	1107.421	275.461	     0.000	    27.159	  3912.475	     0.000	     0.000	     0.000	     0.960
345.00	 1214.756	-5593.630	 3101.347	 132.096	1112.948	276.339	     0.000	    27.159	  3912.475	     0.000	     0.000	     0.000	     0.960
346.00	 1215.513	-5592.897	 3100.977	 131.432	1118.525	277.218	     0.000	    27.159	  3912.475	     0.000	     0.000	     0.000	     0.960
347.00	 1216.268	-5592.156	 3100.603	 130.759	1124.152	278.097	     0.000	    27.159	  3912.475	     0.000	     0.000	     0.000	     0.960
348.00	 1217.021	-5591.408	 3100.224	 130.077	1129.827	278.977	     0.000	    27.159	  3912.475	     0.000	     0.000	     0.000	     0.960
349.00	 1217.773	-5590.651	 3099.841	 129.386	1135.552	279.856	     0.000	    27.159	  3912.475	     0.000	     0.000	     0.000	     0.961
350.00	 1218.523	-5589.887	 3099.454	 128.685	1141.324	280.736	     0.000	    27.159	  3912.475	     0.000	     0.000	     0.000	     0.961
351.00	 1219.272	-5589.115	 3099.061	 127.976	1147.143	281.617	     0.000	    27.159	  3912.475	     0.000	     0.000	     0.000	     0.961
352.00	 1220.019	-5588.334	 3098.665	 127.257	1153.008	282.497	     0.000	    27.159	  3912.475	     0.000	     0.000	     0.000	     0.961
353.00	 1220.764	-5587.546	 3098.264	 126.529	1158.919	283.378	     0.000	    27.159	  3912.475	     0.000	     0.000	     0.000	     0.961
354.00	 1221.508	-5586.750	 3097.858	 125.792	1164.876	284.259	     0.000	    27.159	  3912.475	     0.000	     0.000	     0.000	     0.962
355.00	 1222.249	-5585.945	 3097.448	 125.046	1170.877	285.140	     0.000	    27.159	  3912.475	     0.000	     0.000	     0.000	     0.962
356.00	 1222.990	-5585.133	 3097.034	 124.290	1176.921	286.022	     0.000	    27.159	  3912.475	     0.000	     0.000	     0.000	     0.962
357.00	 1223.728	-5584.313	 3096.615	 123.526	1183.010	286.904	     0.000	    27.159	  3912.475	     0.000	     0.000	     0.000	     0.962
358.00	 1224.465	-5583.485	 3096.191	 122.752	1189.140	287.786	     0.000	    27.159	  3912.475	     0.000	     0.000	     0.000	     0.963
359.00	 1225.201	-5582.649	 3095.763	 121.969	1195.313	288.669	     0.000	    27.159	  3912.475	     0.000	     0.000	     0.000	     0.963
360.00	 1225.934	-5581.805	 3095.331	 121.177	1201.528	289.552	     0.000	    27.159	  3912.475	     0.000	     0.000	     0.000	     0.963
361.00	 1226.667	-5580.953	 3094.894	 120.376	1207.783	290.435	     0.000	    27.159	  3912.475	     0.000	     0.000	     0.000	     0.963
362.00	 1227.397	-5580.093	 3094.452	 119.566	1214.079	291.319	     0.000	    27.159	  3912.475	     0.000	     0.000	     0.000	     0.964
363.00	 1228.126	-5579.225	 3094.006	 118.746	1220.415	292.202	     0.000	    27.159	  3912.475	     0.000	     0.000	     0.000	     0.964
364.00	 1228.853	-5578.349	 3093.556	 117.917	1226.790	293.087	     0.000	    27.159	  3912.475	     0.000	     0.000	     0.000	     0.964
365.00	 1229.578	-5577.466	 3093.101	 117.080	1233.204	293.971	     0.000	    27.159	  3912.475	     0.000	     0.000	     0.000	     0.964
366.00	 1230.302	-5576.574	 3092.641	 116.232	1239.657	294.856	     0.000	    27.159	  3912.475	     0.000	     0.000	     0.000	     0.965
367.00	 1231.024	-5575.674	 3092.177	 115.376	1246.146	295.741	     0.000	    27.159	  3912.475	     0.000	     0.000	     0.000	     0.965
368.00	 1231.745	-5574.766	 3091.709	 114.511	1252.674	296.627	     0.000	    27.159	  3912.475	     0.000	     0.000	     0.000	     0.965
369.00	 1232.464	-5573.850	 3091.236	 113.636	1259.237	297.513	     0.000	    27.159	  3912.475	     0.000	     0.000	     0.000	     0.965
370.00	 1233.181	-5572.927	 3090.759	 112.752	1265.837	298.399	     0.000	    27.159	  3912.475	     0.000	     0.000	     0.000	     0.966
371.00	 1233.896	-5571.995	 3090.277	 111.859	1272.473	299.285	     0.000	    27.159	  3912.475	     0.000	     0.000	     0.000	     0.966
372.00	 1234.610	-5571.055	 3089.790	 110.957	1279.144	300.172	     0.000	    27.159	  3912.475	     0.000	     0.000	     0.000	     0.966
373.00	 1235.322	-5570.107	 3089.299	 110.046	1285.850	301.060	     0.000	    27.159	  3912.475	     0.000	     0.000	     0.000	     0.966
374.00	 1236.033	-5569.152	 3088.804	 109.125	1292.590	301.947	     0.000	    27.159	  3912.475	     0.000	     0.000	     0.000	     0.967
375.00	 1236.742	-5568.188	 3088.304	 108.195	1299.364	302.835	     0.000	    27.159	  3912.475	     0.000	     0.000	     0.000	     0.967
376.00	 1237.449	-5567.216	 3087.799	 107.256	1306.171	303.724	     0.000	    27.159	  3912.475	     0.000	     0.000	     0.000	     0.967
377.00	 1238.155	-5566.237	 3087.290	 106.308	1313.012	304.613	     0.000	    27.159	  3912.475	     0.000	     0.000	     0.000	     0.967
378.00	 1238.858	-5565.249	 3086.777	 105.351	1319.885	305.502	     0.000	    27.159	  3912.475	     0.000	     0.000	     0.000	     0.968
379.00	 1239.561	-5564.253	 3086.258	 104.384	1326.789	306.391	     0.000	    27.159	  3912.475	     0.000	     0.000	     0.000	     0.968
380.00	 1240.261	-5563.249	 3085.736	 103.408	1333.726	307.281	     0.000	    27.159	  3912.475	     0.000	     0.000	     0.000	     0.968
381.00	 1240.960	-5562.238	 3085.209	 102.423	1340.694	308.172	     0.000	    27.159	  3912.475	     0.000	     0.000	     0.000	     0.969
382.00	 1241.657	-5561.218	 3084.677	 101.429	1347.693	309.062	     0.000	    27.159	  3912.475	     0.000	     0.000	     0.000	     0.969
383.00	 1242.353	-5560.190	 3084.141	 100.425	1354.722	309.954	     0.000	    27.159	  3912.475	     0.000	     0.000	     0.000	     0.969
384.00	 1243.047	-5559.154	 3083.600	  99.412	1361.781	310.845	     0.000	    27.159	  3912.475	     0.000	     0.000	     0.000	     0.970
385.00	 1243.739	-5558.110	 3083.055	  98.390	1368.870	311.737	     0.000	    27.159	  3912.475	     0.000	     0.000	     0.000	     0.970
386.00	 1244.430	-5557.058	 3082.506	  97.359	1375.988	312.629	     0.000	    27.159	  3912.475	     0.000	     0.000	     0.000	     0.970
387.00	 1245.119	-5555.999	 3081.951	  96.319	1383.136	313.522	     0.000	    27.159	  3912.475	     0.000	     0.000	     0.000	     0.970
388.00	 1245.806	-5554.931	 3081.393	  95.269	1390.311	314.415	     0.000	    27.159	  3912.475	     0.000	     0.000	     0.000	     0.971
389.00	 1246.492	-5553.855	 3080.829	  94.210	1397.515	315.309	     0.000	    27.159	  3912.475	     0.000	     0.000	     0.000	     0.971
390.00	 1247.176	-5552.771	 3080.262	  93.142	1404.747	316.203	     0.000	    27.159	  3912.475	     0.000	     0.000	     0.000	     0.971
391.00	 1247.858	-5551.679	 3079.689	  92.064	1412.007	317.098	     0.000	    27.159	  3912.475	     0.000	     0.000	     0.000	     0.972
392.00	 1248.538	-5550.579	 3079.112	  90.978	1419.293	317.993	     0.000	    27.159	  3912.475	     0.000	     0.000	     0.000	     0.972
393.00	 1249.217	-5549.470	 3078.531	  89.882	1426.606	318.888	     0.000	    27.159	  3912.475	     0.000	     0.000	     0.000	     0.972
394.00	 1249.895	-5548.354	 3077.945	  88.777	1433.946	319.784	     0.000	    27.159	  3912.475	     0.000	     0.000	     0.000	     0.973
395.00	 1250.570	-5547.230	 3077.355	  87.662	1441.312	320.680	     0.000	    27.159	  3912.475	     0.000	     0.000	     0.000	     0.973
396.00	 1251.244	-5546.098	 3076.760	  86.538	1448.704	321.577	     0.000	    27.159	  3912.475	     0.000	     0.000	     0.000	     0.973
397.00	 1251.916	-5544.958	 3076.160	  85.405	1456.122	322.474	     0.000	    27.159	  3912.475	     0.000	     0.000	     0.000	     0.974
398.00	 1252.587	-5543.809	 3075.556	  84.263	1463.565	323.371	     0.000	    27.159	  3912.475	     0.000	     0.000	     0.000	     0.974
399.00	 1253.256	-5542.653	 3074.947	  83.112	1471.033	324.270	     0.000	    27.159	  3912.475	     0.000	     0.000	     0.000	     0.974
400.00	 1253.923	-5541.488	 3074.334	  81.951	1478.525	325.168	     0.000	    27.159	  3912.475	     0.000	     0.000	     0.000	     0.975
401.00	 1254.589	-5540.316	 3073.716	  80.781	1486.042	326.067	     0.000	    27.159	  3912.475	     0.000	     0.000	     0.000	     0.975
402.00	 1255.252	-5539.135	 3073.094	  79.601	1493.583	326.967	     0.000	    27.159	  3912.475	     0.000	     0.000	     0.000	     0.975
403.00	 1255.915	-5537.946	 3072.467	  78.413	1501.148	327.867	     0.000	    27.159	  3912.475	     0.000	     0.000	     0.000	     0.976
404.00	 1256.575	-5536.750	 3071.836	  77.215	1508.737	328.767	     0.000	    27.159	  3912.475	     0.000	     0.000	     0.000	     0.976
405.00	 1257.234	-5535.545	 3071.200	  76.007	1516.348	329.668	     0.000	    27.159	  3912.475	     0.000	     0.000	     0.000	     0.977
406.00	 1257.891	-5534.332	 3070.560	  74.791	1523.983	330.570	     0.000	    27.159	  3912.475	     0.000	     0.000	     0.000	     0.977
407.00	 1258.546	-5533.111	 3069.915	  73.565	1531.641	331.471	     0.000	    27.159	  3912.475	     0.000	     0.000	     0.000	     0.977
408.00	 1259.200	-5531.882	 3069.265	  72.330	1539.321	332.374	     0.000	    27.159	  3912.475	     0.000	     0.000	     0.000	     0.978
409.00	 1259.852	-5530.644	 3068.611	  71.086	1547.023	333.277	     0.000	    27.159	  3912.475	     0.000	     0.000	     0.000	     0.978
410.00	 1260.503	-5529.399	 3067.952	  69.832	1554.748	334.180	     0.000	    27.159	  3912.475	     0.000	     0.000	     0.000	     0.978
411.00	 1261.151	-5528.146	 3067.289	  68.569	1562.494	335.084	     0.000	    27.159	  3912.475	     0.000	     0.000	     0.000	     0.979
412.00	 1261.798	-5526.884	 3066.621	  67.296	1570.262	335.989	     0.000	    27.159	  3912.475	     0.000	     0.000	     0.000	     0.979
413.00	 1262.444	-5525.615	 3065.949	  66.015	1578.051	336.894	     0.000	    27.159	  3912.475	     0.000	     0.000	     0.000	     0.980
414.00	 1263.087	-5524.337	 3065.272	  64.724	1585.861	337.799	     0.000	    27.159	  3912.475	     0.000	     0.000	     0.000	     0.980
415.00	 1263.729	-5523.051	 3064.590	  63.423	1593.693	338.705	     0.000	    27.159	  3912.475	     0.000	     0.000	     0.000	     0.980
416.00	 1264.370	-5521.757	 3063.904	  62.114	1601.544	339.612	     0.000	    27.159	  3912.475	     0.000	     0.000	     0.000	     0.981
417.00	 1265.008	-5520.455	 3063.214	  60.794	1609.417	340.519	     0.000	    27.159	  3912.475	     0.000	     0.000	     0.000	     0.981
418.00	 1265.645	-5519.145	 3062.518	  59.466	1617.310	341.427	     0.000	    27.159	  3912.475	     0.000	     0.000	     0.000	     0.982
419.00	 1266.280	-5517.827	 3061.819	  58.128	1625.222	342.335	     0.000	    27.159	  3912.475	     0.000	     0.000	     0.000	     0.982
420.00	 1266.914	-5516.500	 3061.114	  56.781	1633.155	343.244	     0.000	    27.159	  3912.475	     0.000	     0.000	     0.000	     0.982
421.00	 1267.546	-5515.166	 3060.405	  55.425	1641.107	344.153	     0.000	    27.159	  3912.475	     0.000	     0.000	     0.000	     0.983
422.00	 1268.176	-5513.823	 3059.692	  54.059	1649.079	345.063	     0.000	    27.159	  3912.475	     0.000	     0.000	     0.000	     0.983
423.00	 1268.804	-5512.472	 3058.974	  52.684	1657.070	345.973	     0.000	    27.159	  3912.475	     0.000	     0.000	     0.000	     0.984
424.00	 1269.431	-5511.113	 3058.251	  51.300	1665.081	346.884	     0.000	    27.159	  3912.475	     0.000	     0.000	     0.000	     0.984
425.00	 1270.056	-5509.746	 3057.524	  49.906	1673.110	347.796	     0.000	    27.159	  3912.475	     0.000	     0.000	     0.000	     0.984
426.00	 1270.679	-5508.371	 3056.792	  48.502	1681.158	348.708	     0.000	    27.159	  3912.475	     0.000	     0.000	     0.000	     0.985
427.00	 1271.301	-5506.988	 3056.055	  47.090	1689.224	349.621	     0.000	    27.159	  3912.475	     0.000	     0.000	     0.000	     0.985
428.00	 1271.921	-5505.596	 3055.314	  45.668	1697.309	350.534	     0.000	    27.159	  3912.475	     0.000	     0.000	     0.000	     0.986
429.00	 1272.539	-5504.196	 3054.569	  44.237	1705.413	351.448	     0.000	    27.159	  3912.475	     0.000	     0.000	     0.000	     0.986
430.00	 1273.155	-5502.789	 3053.818	  42.796	1713.534	352.362	     0.000	    27.159	  3912.475	     0.000	     0.000	     0.000	     0.987
431.00	 1273.760	-5501.395	 3053.076	  41.367	1675.943	353.264	     0.000	    26.347	  3958.170	     0.000	     0.000	     1.000	     3.901
432.00	 1274.347	-5500.032	 3052.348	  39.967	1637.674	354.142	     0.000	    25.534	  4004.561	     0.000	     0.000	     1.000	     3.971
433.00	 1274.916	-5498.698	 3051.637	  38.598	1598.705	354.995	     0.000	    24.722	  4051.670	     0.000	     0.000	     1.000	     4.042
434.00	 1275.466	-5497.396	 3050.942	  37.260	1559.014	355.824	     0.000	    23.910	  4099.518	     0.000	     0.000	     1.000	     4.116
435.00	 1275.997	-5496.126	 3050.264	  35.953	1518.576	356.629	     0.000	    23.097	  4148.130	     0.000	     0.000	     1.000	     4.193
436.00	 1276.510	-5494.889	 3049.604	  34.679	1477.369	357.408	     0.000	    22.285	  4197.530	     0.000	     0.000	     1.000	     4.271
437.00	 1277.004	-5493.684	 3048.960	  33.437	1435.365	358.161	     0.000	    21.473	  4247.744	     0.000	     0.000	     1.000	     4.353
438.00	 1277.479	-5492.513	 3048.335	  32.230	1392.537	358.889	     0.000	    20.661	  4298.799	     0.000	     0.000	     1.000	     4.437
439.00	 1277.935	-5491.377	 3047.727	  31.057	1348.859	359.591	     0.000	    19.848	  4350.725	     0.000	     0.000	     1.000	     4.525
440.00	 1278.372	-5490.277	 3047.139	  29.919	1304.298	360.266	     0.000	    19.036	  4403.550	     0.000	     0.000	     1.000	     4.615
441.00	 1278.790	-5489.213	 3046.570	  28.818	1258.825	360.914	     0.000	    18.224	  4457.308	     0.000	     0.000	     1.000	     4.709
442.00	 1279.188	-5488.186	 3046.020	  27.755	1212.405	361.536	     0.000	    17.411	  4512.031	     0.000	     0.000	     1.000	     4.806
443.00	 1279.566	-5487.196	 3045.490	  26.729	1165.004	362.129	     0.000	    16.599	  4567.755	     0.000	     0.000	     1.000	     4.907
444.00	 1279.925	-5486.246	 3044.982	  25.743	1116.584	362.696	     0.000	    15.787	  4624.518	     0.000	     0.000	     1.000	     5.012
445.00	 1280.264	-5485.336	 3044.494	  24.797	1066.849	363.233	    22.789	    14.975	  4682.316	     0.000	     0.000	     1.000	     5.254
446.00	 1280.582	-5484.467	 3044.028	  23.893	1014.852	363.742	    23.967	    14.162	  4741.122	     0.000	     0.000	     1.000	     5.389
447.00	 1280.880	-5483.642	 3043.586	  23.032	 961.498	364.222	    24.828	    13.350	  4801.066	     0.000	     0.000	     1.000	     5.528
448.00	 1281.157	-5482.861	 3043.167	  22.217	 906.747	364.671	    25.299	    12.538	  4862.191	     0.000	     0.000	     1.000	     5.672
449.00	 1281.414	-5482.125	 3042.772	  21.449	 850.566	365.089	    25.316	    11.725	  4924.543	     0.000	     0.000	     1.000	     5.818
450.00	 1281.650	-5481.437	 3042.402	  20.728	 792.935	365.477	    24.831	    10.913	  4988.173	     0.000	     0.000	     1.000	     5.966
451.00	 1281.864	-5480.797	 3042.058	  20.056	 734.339	365.833	    23.841	    10.107	  5052.642	     0.000	     0.000	     0.985	     6.012
452.00	 1282.058	-5480.205	 3041.740	  19.435	 675.756	366.158	    22.326	     9.318	  5117.040	     0.000	     0.000	     0.960	     5.982
453.00	 1282.232	-5479.662	 3041.448	  18.863	 617.160	366.453	    20.422	     8.545	  5181.469	     0.000	     0.000	     0.945	     6.009
454.00	 1282.385	-5479.168	 3041.182	  18.341	 558.582	366.717	    18.206	     7.787	  5245.974	     0.000	     0.000	     0.925	     5.992
455.00	 1282.519	-5478.722	 3040.942	  17.870	 500.019	366.951	    15.760	     7.043	  5310.638	     0.000	     0.000	     0.910	     6.000
456.00	 1282.635	-5478.326	 3040.728	  17.449	 441.454	367.155	    13.174	     6.312	  5375.554	     0.000	     0.000	     0.895	     6.000
457.00	 1282.732	-5477.979	 3040.541	  17.080	 382.889	367.330	    10.552	     5.592	  5440.824	     0.000	     0.000	     0.880	     5.979
458.00	 1282.811	-5477.681	 3040.380	  16.762	 324.347	367.477	     8.010	     4.881	  5506.669	     0.000	     0.000	     0.870	     5.983
459.00	 1282.874	-5477.432	 3040.246	  16.495	 265.776	367.596	     5.657	     4.179	  5573.103	     0.000	     0.000	     0.860	     5.998
460.00	 1282.928	-5477.199	 3040.120	  16.247	 273.965	367.702	     5.947	     4.179	  5573.103	     0.000	     0.000	     0.000	     0.922
461.00	 1282.981	-5476.958	 3039.989	  15.989	 282.110	367.809	     6.566	     4.179	  5573.103	     0.000	     0.000	     0.000	     0.912
462.00	 1283.032	-5476.710	 3039.855	  15.723	 290.195	367.914	     7.245	     4.179	  5573.103	     0.000	     0.000	     0.000	     0.901
463.00	 1283.080	-5476.454	 3039.716	  15.448	 298.204	368.020	     7.988	     4.179	  5573.103	     0.000	     0.000	     0.000	     0.889
464.00	 1283.126	-5476.191	 3039.573	  15.165	 306.120	368.125	     8.802	     4.179	  5573.103	     0.000	     0.000	     0.000	     0.876
465.00	 1283.171	-5475.921	 3039.426	  14.873	 313.924	368.230	     9.691	     4.179	  5573.103	     0.000	     0.000	     0.000	     0.861
466.00	 1283.213	-5475.643	 3039.275	  14.572	 321.597	368.335	    10.663	     4.179	  5573.103	     0.000	     0.000	     0.000	     0.844
467.00	 1283.253	-5475.359	 3039.121	  14.264	 329.120	368.439	    11.723	     4.179	  5573.103	     0.000	     0.000	     0.000	     0.825
468.00	 1283.291	-5475.068	 3038.962	  13.947	 336.472	368.542	    12.878	     4.179	  5573.103	     0.000	     0.000	     0.000	     0.805
469.00	 1283.326	-5474.770	 3038.800	  13.623	 343.630	368.645	    14.135	     4.179	  5573.103	     0.000	     0.000	     0.000	     0.783
470.00	 1283.360	-5474.466	 3038.634	  13.291	 350.570	368.747	    15.500	     4.179	  5573.103	     0.000	     0.000	     0.000	     0.758
471.00	 1283.391	-5474.156	 3038.465	  12.951	 357.268	368.849	    16.981	     4.179	  5573.103	     0.000	     0.000	     0.000	     0.731
472.00	 1283.421	-5473.840	 3038.292	  12.605	 363.699	368.950	    18.583	     4.179	  5573.103	     0.000	     0.000	     0.000	     0.702
473.00	 1283.448	-5473.519	 3038.117	  12.252	 369.835	369.050	    20.313	     4.179	  5573.103	     0.000	     0.000	     0.000	     0.671
474.00	 1283.473	-5473.192	 3037.938	  11.892	 375.650	369.149	    22.177	     4.179	  5573.103	     0.000	     0.000	     0.000	     0.637
475.00	 1283.496	-5472.860	 3037.757	  11.526	 381.115	369.247	    24.179	     4.179	  5573.103	     0.000	     0.000	     0.000	     0.601
476.00	 1283.517	-5472.524	 3037.573	  11.155	 386.203	369.345	    26.324	     4.179	  5573.103	     0.000	     0.000	     0.000	     0.563
477.00	 1283.535	-5472.183	 3037.386	  10.778	 390.891	369.441	    28.482	     4.179	  5573.103	     0.000	     0.000	     0.000	     0.524
478.00	 1283.552	-5471.838	 3037.197	  10.397	 395.196	369.536	    30.560	     4.179	  5573.103	     0.000	     0.000	     0.000	     0.487
479.00	 1283.566	-5471.489	 3037.006	  10.011	 399.110	369.630	    32.719	     4.179	  5573.103	     0.000	     0.000	     0.000	     0.449
480.00	 1283.578	-5471.138	 3036.813	   9.621	 402.621	369.722	    34.952	     4.179	  5573.103	     0.000	     0.000	     0.000	     0.411
481.00	 1283.588	-5470.783	 3036.619	   9.227	 405.716	369.813	    37.253	     4.179	  5573.103	     0.000	     0.000	     0.000	     0.373
482.00	 1283.597	-5470.426	 3036.423	   8.829	 408.390	369.903	    39.612	     4.179	  5573.103	     0.000	     0.000	     0.000	     0.336
483.00	 1283.603	-5470.067	 3036.226	   8.429	 410.635	369.991	    42.022	     4.179	  5573.103	     0.000	     0.000	     0.000	     0.301
484.00	 1283.607	-5469.706	 3036.028	   8.027	 412.451	370.078	    44.472	     4.179	  5573.103	     0.000	     0.000	     0.000	     0.268
485.00	 1283.609	-5469.343	 3035.829	   7.623	 413.839	370.163	    46.951	     4.179	  5573.103	     0.000	     0.000	     0.000	     0.239
486.00	 1283.609	-5468.980	 3035.630	   7.217	 413.408	370.247	    49.450	     4.164	  5574.496	     0.000	     0.000	     0.553	     1.356
487.00	 1283.607	-5468.625	 3035.434	   6.819	 400.432	370.327	    48.568	     4.014	  5588.451	     0.000	     0.000	     0.553	     1.320
488.00	 1283.604	-5468.281	 3035.245	   6.433	 387.807	370.402	    47.600	     3.864	  5602.442	     0.000	     0.000	     0.553	     1.284
489.00	 1283.599	-5467.947	 3035.062	   6.058	 375.530	370.474	    46.555	     3.715	  5616.469	     0.000	     0.000	     0.553	     1.248
490.00	 1283.592	-5467.625	 3034.885	   5.696	 363.600	370.542	    45.446	     3.565	  5630.531	     0.000	     0.000	     0.553	     1.213
491.00	 1283.584	-5467.312	 3034.713	   5.344	 352.011	370.605	    44.282	     3.415	  5644.629	     0.000	     0.000	     0.553	     1.178
492.00	 1283.574	-5467.010	 3034.546	   5.004	 340.755	370.666	    43.072	     3.266	  5658.763	     0.000	     0.000	     0.553	     1.144
493.00	 1283.564	-5466.717	 3034.385	   4.674	 329.824	370.722	    41.825	     3.116	  5672.932	     0.000	     0.000	     0.553	     1.111
494.00	 1283.551	-5466.434	 3034.229	   4.354	 319.209	370.776	    40.548	     2.966	  5687.138	     0.000	     0.000	     0.553	     1.079
495.00	 1283.538	-5466.160	 3034.079	   4.045	 308.898	370.826	    39.247	     2.817	  5701.381	     0.000	     0.000	     0.553	     1.048
496.00	 1283.524	-5465.895	 3033.933	   3.745	 298.880	370.873	    37.930	     2.667	  5715.661	     0.000	     0.000	     0.553	     1.018
497.00	 1283.509	-5465.639	 3033.791	   3.455	 289.144	370.917	    36.601	     2.518	  5729.978	     0.000	     0.000	     0.553	     0.990
498.00	 1283.493	-5465.391	 3033.655	   3.174	 279.677	370.958	    35.264	     2.368	  5744.332	     0.000	     0.000	     0.553	     0.962
499.00	 1283.476	-5465.152	 3033.522	   2.902	 270.466	370.997	    33.925	     2.218	  5758.725	     0.000	     0.000	     0.553	     0.936
500.00	 1283.458	-5464.920	 3033.395	   2.639	 261.501	371.033	    32.587	     2.069	  5773.157	     0.000	     0.000	     0.553	     0.912
501.00	 1283.440	-5464.696	 3033.271	   2.385	 252.767	371.066	    31.252	     1.919	  5787.628	     0.000	     0.000	     0.553	     0.888
502.00	 1283.421	-5464.480	 3033.152	   2.139	 244.253	371.097	    29.925	     1.769	  5802.139	     0.000	     0.000	     0.553	     0.866
503.00	 1283.402	-5464.271	 3033.037	   1.901	 235.947	371.127	    28.608	     1.620	  5816.691	     0.000	     0.000	     0.553	     0.844
504.00	 1283.382	-5464.070	 3032.925	   1.671	 227.837	371.154	    27.302	     1.470	  5831.285	     0.000	     0.000	     0.553	     0.825
505.00	 1283.362	-5463.875	 3032.818	   1.449	 219.911	371.178	    26.010	     1.321	  5845.921	     0.000	     0.000	     0.553	     0.806
506.00	 1283.341	-5463.688	 3032.714	   1.234	 212.158	371.202	    24.734	     1.171	  5860.600	     0.000	     0.000	     0.553	     0.788
507.00	 1283.320	-5463.507	 3032.614	   1.028	 204.566	371.223	    23.475	     1.021	  5875.324	     0.000	     0.000	     0.553	     0.772
508.00	 1283.299	-5463.333	 3032.518	   0.828	 197.125	371.242	    22.234	     0.872	  5890.093	     0.000	     0.000	     0.553	     0.756
509.00	 1283.278	-5463.165	 3032.425	   0.636	 189.824	371.260	    21.014	     0.722	  5904.908	     0.000	     0.000	     0.553	     0.742
510.00	 1283.257	-5463.004	 3032.336	   0.451	 182.652	371.277	    19.815	     0.572	  5919.770	     0.000	     0.000	     0.553	     0.729
511.00	 1283.236	-5462.849	 3032.250	   0.273	 175.599	371.292	    18.639	     0.423	  5934.681	     0.000	     0.000	     0.553	     0.717
512.00	 1283.215	-5462.700	 3032.168	   0.101	 168.650	371.306	    17.485	     0.273	  5949.641	     0.000	     0.000	     0.553	     0.708
