#Time	x(km)		y(km)		z(km)		alt(km)	    relVel		dwnrng(km)	 Q(kPa)	   Fuel(tons) dV_tot	  dV_grav	  dv_drag		 throttle	accel (g's)
-59.10	  914.521	-5524.175	 3054.140	   0.000	   0.000	0.000	     0.000	   420.000	     0.000	     0.000	     0.000	     0.000	     0.000
-58.10	  914.521	-5524.175	 3054.140	   0.000	   0.000	0.000	     0.000	   420.000	     0.000	     0.000	     0.000	     0.000	     0.000
-57.10	  914.521	-5524.175	 3054.140	   0.000	   0.000	0.000	     0.000	   420.000	     0.000	     0.000	     0.000	     0.000	     0.000
-56.10	  914.521	-5524.175	 3054.140	   0.000	   0.000	0.000	     0.000	   420.000	     0.000	     0.000	     0.000	     0.000	     0.000
-55.10	  914.521	-5524.175	 3054.140	   0.000	   0.000	0.000	     0.000	   420.000	     0.000	     0.000	     0.000	     0.000	     0.000
-54.10	  914.521	-5524.175	 3054.140	   0.000	   0.000	0.000	     0.000	   420.000	     0.000	     0.000	     0.000	     0.000	     0.000
-53.10	  914.521	-5524.175	 3054.140	   0.000	   0.000	0.000	     0.000	   420.000	     0.000	     0.000	     0.000	     0.000	     0.000
-52.10	  914.521	-5524.175	 3054.140	   0.000	   0.000	0.000	     0.000	   420.000	     0.000	     0.000	     0.000	     0.000	     0.000
-51.10	  914.521	-5524.175	 3054.140	   0.000	   0.000	0.000	     0.000	   420.000	     0.000	     0.000	     0.000	     0.000	     0.000
-50.10	  914.521	-5524.175	 3054.140	   0.000	   0.000	0.000	     0.000	   420.000	     0.000	     0.000	     0.000	     0.000	     0.000
-49.10	  914.521	-5524.175	 3054.140	   0.000	   0.000	0.000	     0.000	   420.000	     0.000	     0.000	     0.000	     0.000	     0.000
-48.10	  914.521	-5524.175	 3054.140	   0.000	   0.000	0.000	     0.000	   420.000	     0.000	     0.000	     0.000	     0.000	     0.000
-47.10	  914.521	-5524.175	 3054.140	   0.000	   0.000	0.000	     0.000	   420.000	     0.000	     0.000	     0.000	     0.000	     0.000
-46.10	  914.521	-5524.175	 3054.140	   0.000	   0.000	0.000	     0.000	   420.000	     0.000	     0.000	     0.000	     0.000	     0.000
-45.10	  914.521	-5524.175	 3054.140	   0.000	   0.000	0.000	     0.000	   420.000	     0.000	     0.000	     0.000	     0.000	     0.000
-44.10	  914.521	-5524.175	 3054.140	   0.000	   0.000	0.000	     0.000	   420.000	     0.000	     0.000	     0.000	     0.000	     0.000
-43.10	  914.521	-5524.175	 3054.140	   0.000	   0.000	0.000	     0.000	   420.000	     0.000	     0.000	     0.000	     0.000	     0.000
-42.10	  914.521	-5524.175	 3054.140	   0.000	   0.000	0.000	     0.000	   420.000	     0.000	     0.000	     0.000	     0.000	     0.000
-41.10	  914.521	-5524.175	 3054.140	   0.000	   0.000	0.000	     0.000	   420.000	     0.000	     0.000	     0.000	     0.000	     0.000
-40.10	  914.521	-5524.175	 3054.140	   0.000	   0.000	0.000	     0.000	   420.000	     0.000	     0.000	     0.000	     0.000	     0.000
-39.10	  914.521	-5524.175	 3054.140	   0.000	   0.000	0.000	     0.000	   420.000	     0.000	     0.000	     0.000	     0.000	     0.000
-38.10	  914.521	-5524.175	 3054.140	   0.000	   0.000	0.000	     0.000	   420.000	     0.000	     0.000	     0.000	     0.000	     0.000
-37.10	  914.521	-5524.175	 3054.140	   0.000	   0.000	0.000	     0.000	   420.000	     0.000	     0.000	     0.000	     0.000	     0.000
-36.10	  914.521	-5524.175	 3054.140	   0.000	   0.000	0.000	     0.000	   420.000	     0.000	     0.000	     0.000	     0.000	     0.000
-35.10	  914.521	-5524.175	 3054.140	   0.000	   0.000	0.000	     0.000	   420.000	     0.000	     0.000	     0.000	     0.000	     0.000
-34.10	  914.521	-5524.175	 3054.140	   0.000	   0.000	0.000	     0.000	   420.000	     0.000	     0.000	     0.000	     0.000	     0.000
-33.10	  914.521	-5524.175	 3054.140	   0.000	   0.000	0.000	     0.000	   420.000	     0.000	     0.000	     0.000	     0.000	     0.000
-32.10	  914.521	-5524.175	 3054.140	   0.000	   0.000	0.000	     0.000	   420.000	     0.000	     0.000	     0.000	     0.000	     0.000
-31.10	  914.521	-5524.175	 3054.140	   0.000	   0.000	0.000	     0.000	   420.000	     0.000	     0.000	     0.000	     0.000	     0.000
-30.10	  914.521	-5524.175	 3054.140	   0.000	   0.000	0.000	     0.000	   420.000	     0.000	     0.000	     0.000	     0.000	     0.000
-29.10	  914.521	-5524.175	 3054.140	   0.000	   0.000	0.000	     0.000	   420.000	     0.000	     0.000	     0.000	     0.000	     0.000
-28.10	  914.521	-5524.175	 3054.140	   0.000	   0.000	0.000	     0.000	   420.000	     0.000	     0.000	     0.000	     0.000	     0.000
-27.10	  914.521	-5524.175	 3054.140	   0.000	   0.000	0.000	     0.000	   420.000	     0.000	     0.000	     0.000	     0.000	     0.000
-26.10	  914.521	-5524.175	 3054.140	   0.000	   0.000	0.000	     0.000	   420.000	     0.000	     0.000	     0.000	     0.000	     0.000
-25.10	  914.521	-5524.175	 3054.140	   0.000	   0.000	0.000	     0.000	   420.000	     0.000	     0.000	     0.000	     0.000	     0.000
-24.10	  914.521	-5524.175	 3054.140	   0.000	   0.000	0.000	     0.000	   420.000	     0.000	     0.000	     0.000	     0.000	     0.000
-23.10	  914.521	-5524.175	 3054.140	   0.000	   0.000	0.000	     0.000	   420.000	     0.000	     0.000	     0.000	     0.000	     0.000
-22.10	  914.521	-5524.175	 3054.140	   0.000	   0.000	0.000	     0.000	   420.000	     0.000	     0.000	     0.000	     0.000	     0.000
-21.10	  914.521	-5524.175	 3054.140	   0.000	   0.000	0.000	     0.000	   420.000	     0.000	     0.000	     0.000	     0.000	     0.000
-20.10	  914.521	-5524.175	 3054.140	   0.000	   0.000	0.000	     0.000	   420.000	     0.000	     0.000	     0.000	     0.000	     0.000
-19.10	  914.521	-5524.175	 3054.140	   0.000	   0.000	0.000	     0.000	   420.000	     0.000	     0.000	     0.000	     0.000	     0.000
-18.10	  914.521	-5524.175	 3054.140	   0.000	   0.000	0.000	     0.000	   420.000	     0.000	     0.000	     0.000	     0.000	     0.000
-17.10	  914.521	-5524.175	 3054.140	   0.000	   0.000	0.000	     0.000	   420.000	     0.000	     0.000	     0.000	     0.000	     0.000
-16.10	  914.521	-5524.175	 3054.140	   0.000	   0.000	0.000	     0.000	   420.000	     0.000	     0.000	     0.000	     0.000	     0.000
-15.10	  914.521	-5524.175	 3054.140	   0.000	   0.000	0.000	     0.000	   420.000	     0.000	     0.000	     0.000	     0.000	     0.000
-14.10	  914.521	-5524.175	 3054.140	   0.000	   0.000	0.000	     0.000	   420.000	     0.000	     0.000	     0.000	     0.000	     0.000
-13.10	  914.521	-5524.175	 3054.140	   0.000	   0.000	0.000	     0.000	   420.000	     0.000	     0.000	     0.000	     0.000	     0.000
-12.10	  914.521	-5524.175	 3054.140	   0.000	   0.000	0.000	     0.000	   420.000	     0.000	     0.000	     0.000	     0.000	     0.000
-11.10	  914.521	-5524.175	 3054.140	   0.000	   0.000	0.000	     0.000	   420.000	     0.000	     0.000	     0.000	     0.000	     0.000
-10.10	  914.521	-5524.175	 3054.140	   0.000	   0.000	0.000	     0.000	   420.000	     0.000	     0.000	     0.000	     0.000	     0.000
 -9.10	  914.521	-5524.175	 3054.140	   0.000	   0.000	0.000	     0.000	   420.000	     0.000	     0.000	     0.000	     0.000	     0.000
 -8.10	  914.521	-5524.175	 3054.140	   0.000	   0.000	0.000	     0.000	   420.000	     0.000	     0.000	     0.000	     0.000	     0.000
 -7.10	  914.521	-5524.175	 3054.140	   0.000	   0.000	0.000	     0.000	   420.000	     0.000	     0.000	     0.000	     0.000	     0.000
 -6.10	  914.521	-5524.175	 3054.140	   0.000	   0.000	0.000	     0.000	   420.000	     0.000	     0.000	     0.000	     0.000	     0.000
 -5.10	  914.521	-5524.175	 3054.140	   0.000	   0.000	0.000	     0.000	   420.000	     0.000	     0.000	     0.000	     0.000	     0.000
 -4.10	  914.521	-5524.175	 3054.140	   0.000	   0.000	0.000	     0.000	   420.000	     0.000	     0.000	     0.000	     0.000	     0.000
 -3.10	  914.521	-5524.175	 3054.140	   0.000	   0.000	0.000	     0.000	   420.000	     0.000	     0.000	     0.000	     0.000	     0.000
 -2.10	  914.521	-5524.175	 3054.140	   0.000	   0.000	0.000	     0.000	   420.000	     0.000	     0.000	     0.000	     0.000	     0.000
 -1.10	  914.521	-5524.175	 3054.140	   0.000	   0.000	0.000	     0.000	   417.807	     8.364	     0.000	     0.000	     1.000	     0.000
 -0.10	  914.521	-5524.175	 3054.140	   0.000	   0.000	0.000	     0.000	   415.370	    17.702	     0.000	     0.000	     1.000	     0.000
  0.00	  914.521	-5524.175	 3054.140	   0.000	   0.000	0.000	     0.000	   415.126	    18.638	     0.000	     0.000	     1.000	     0.000
  1.00	  914.522	-5524.177	 3054.141	   0.002	   3.882	0.000	     0.007	   412.933	    27.088	     0.000	     0.000	     1.000	     0.440
  2.00	  914.522	-5524.183	 3054.144	   0.008	   8.263	0.000	     0.038	   410.496	    36.522	     0.000	     0.000	     1.000	     0.448
  3.00	  914.524	-5524.192	 3054.149	   0.019	  12.717	0.000	     0.093	   408.059	    46.006	     0.000	     0.000	     1.000	     0.455
  4.00	  914.526	-5524.206	 3054.156	   0.034	  17.246	0.000	     0.173	   405.623	    55.540	     0.000	     0.000	     1.000	     0.463
  5.00	  914.529	-5524.223	 3054.166	   0.054	  21.851	0.001	     0.281	   403.186	    65.126	     0.000	     0.000	     1.000	     0.471
  6.00	  914.532	-5524.245	 3054.177	   0.078	  26.534	0.001	     0.416	   400.749	    74.765	     0.000	     0.000	     1.000	     0.479
  7.00	  914.536	-5524.270	 3054.191	   0.108	  31.295	0.001	     0.580	   398.312	    84.458	     0.000	     0.000	     1.000	     0.487
  8.00	  914.541	-5524.300	 3054.208	   0.141	  36.070	0.001	     0.771	   395.875	    94.205	     0.000	     0.000	     1.000	     0.511
  9.00	  914.549	-5524.333	 3054.226	   0.180	  40.979	0.001	     0.994	   393.438	   104.009	     0.000	     0.000	     1.000	     0.520
 10.00	  914.558	-5524.371	 3054.247	   0.224	  46.007	0.005	     1.250	   391.002	   113.870	     0.000	     0.000	     1.000	     0.528
 11.00	  914.570	-5524.412	 3054.270	   0.272	  51.146	0.010	     1.540	   388.565	   123.789	     0.000	     0.000	     1.000	     0.536
 12.00	  914.585	-5524.458	 3054.296	   0.326	  56.388	0.016	     1.866	   386.128	   133.768	     0.000	     0.000	     1.000	     0.545
 13.00	  914.601	-5524.508	 3054.324	   0.385	  61.730	0.024	     2.226	   383.691	   143.808	     0.000	     0.000	     1.000	     0.553
 14.00	  914.620	-5524.562	 3054.355	   0.449	  67.170	0.034	     2.623	   381.254	   153.910	     0.000	     0.000	     1.000	     0.562
 15.00	  914.641	-5524.620	 3054.388	   0.518	  72.708	0.045	     3.055	   378.817	   164.075	     0.000	     0.000	     1.000	     0.571
 16.00	  914.665	-5524.683	 3054.424	   0.593	  78.342	0.058	     3.525	   376.380	   174.304	     0.000	     0.000	     1.000	     0.580
 17.00	  914.691	-5524.751	 3054.462	   0.673	  84.073	0.072	     4.031	   373.944	   184.600	     0.000	     0.000	     1.000	     0.590
 18.00	  914.719	-5524.823	 3054.503	   0.759	  89.901	0.088	     4.574	   371.507	   194.963	     0.000	     0.000	     1.000	     0.599
 19.00	  914.750	-5524.899	 3054.547	   0.850	  95.827	0.106	     5.154	   369.070	   205.394	     0.000	     0.000	     1.000	     0.609
 20.00	  914.783	-5524.981	 3054.593	   0.947	 101.851	0.125	     5.770	   366.633	   215.895	     0.000	     0.000	     1.000	     0.619
 21.00	  914.818	-5525.067	 3054.642	   1.051	 107.975	0.146	     6.423	   364.196	   226.467	     0.000	     0.000	     1.000	     0.629
 22.00	  914.856	-5525.158	 3054.694	   1.160	 114.199	0.169	     7.112	   361.759	   237.112	     0.000	     0.000	     1.000	     0.639
 23.00	  914.897	-5525.255	 3054.749	   1.275	 120.526	0.193	     7.835	   359.323	   247.831	     0.000	     0.000	     1.000	     0.649
 24.00	  914.939	-5525.356	 3054.807	   1.396	 126.956	0.218	     8.593	   356.886	   258.626	     0.000	     0.000	     1.000	     0.659
 25.00	  914.985	-5525.463	 3054.868	   1.524	 133.490	0.246	     9.385	   354.449	   269.497	     0.000	     0.000	     1.000	     0.670
 26.00	  915.033	-5525.574	 3054.932	   1.658	 140.131	0.275	    10.208	   352.012	   280.447	     0.000	     0.000	     1.000	     0.681
 27.00	  915.084	-5525.691	 3054.999	   1.798	 146.880	0.305	    11.062	   349.575	   291.476	     0.000	     0.000	     1.000	     0.692
 28.00	  915.137	-5525.814	 3055.070	   1.945	 153.738	0.338	    11.946	   347.138	   302.586	     0.000	     0.000	     1.000	     0.703
 29.00	  915.193	-5525.942	 3055.143	   2.099	 160.707	0.372	    12.856	   344.701	   313.779	     0.000	     0.000	     1.000	     0.714
 30.00	  915.251	-5526.076	 3055.220	   2.260	 167.789	0.408	    13.793	   342.265	   325.056	     0.000	     0.000	     1.000	     0.726
 31.00	  915.312	-5526.216	 3055.300	   2.428	 174.983	0.445	    14.752	   339.828	   336.419	     0.000	     0.000	     1.000	     0.737
 32.00	  915.376	-5526.361	 3055.383	   2.602	 182.291	0.484	    15.731	   337.391	   347.869	     0.000	     0.000	     1.000	     0.749
 33.00	  915.443	-5526.512	 3055.470	   2.784	 189.714	0.525	    16.728	   334.954	   359.407	     0.000	     0.000	     1.000	     0.760
 34.00	  915.512	-5526.670	 3055.560	   2.973	 197.253	0.568	    17.740	   332.517	   371.035	     0.000	     0.000	     1.000	     0.772
 35.00	  915.584	-5526.833	 3055.654	   3.170	 204.909	0.612	    18.764	   330.080	   382.755	     0.000	     0.000	     1.000	     0.784
 36.00	  915.659	-5527.003	 3055.751	   3.374	 212.684	0.658	    19.795	   327.644	   394.568	     0.000	     0.000	     1.000	     0.797
 37.00	  915.737	-5527.179	 3055.852	   3.585	 220.580	0.706	    20.832	   325.207	   406.475	     0.000	     0.000	     1.000	     0.809
 38.00	  915.817	-5527.362	 3055.957	   3.805	 228.597	0.755	    21.869	   322.770	   418.479	     0.000	     0.000	     1.000	     0.821
 39.00	  915.901	-5527.551	 3056.066	   4.032	 236.737	0.807	    22.903	   320.333	   430.580	     0.000	     0.000	     1.000	     0.834
 40.00	  915.987	-5527.747	 3056.178	   4.268	 245.002	0.860	    23.930	   317.896	   442.779	     0.000	     0.000	     1.000	     0.847
 41.00	  916.077	-5527.949	 3056.294	   4.511	 253.393	0.915	    24.945	   315.459	   455.080	     0.000	     0.000	     1.000	     0.860
 42.00	  916.169	-5528.159	 3056.414	   4.763	 261.912	0.971	    25.945	   313.022	   467.482	     0.000	     0.000	     1.000	     0.873
 43.00	  916.264	-5528.375	 3056.538	   5.023	 270.559	1.030	    26.924	   310.586	   479.987	     0.000	     0.000	     1.000	     0.886
 44.00	  916.363	-5528.599	 3056.667	   5.292	 279.337	1.090	    27.877	   308.149	   492.597	     0.000	     0.000	     1.000	     0.899
 45.00	  916.464	-5528.829	 3056.799	   5.569	 288.247	1.152	    28.800	   305.712	   505.314	     0.000	     0.000	     1.000	     0.913
 46.00	  916.568	-5529.067	 3056.936	   5.855	 297.290	1.216	    29.688	   303.275	   518.138	     0.000	     0.000	     1.000	     0.927
 47.00	  916.676	-5529.313	 3057.076	   6.150	 306.469	1.282	    30.536	   300.838	   531.072	     0.000	     0.000	     1.000	     0.941
 48.00	  916.787	-5529.566	 3057.222	   6.454	 315.784	1.350	    31.339	   298.401	   544.115	     0.000	     0.000	     1.000	     0.955
 49.00	  916.901	-5529.827	 3057.371	   6.768	 325.238	1.419	    32.093	   295.965	   557.271	     0.000	     0.000	     1.000	     0.969
 50.00	  917.018	-5530.095	 3057.525	   7.090	 334.832	1.491	    32.791	   293.528	   570.540	     0.000	     0.000	     1.000	     0.983
 51.00	  917.138	-5530.372	 3057.684	   7.423	 344.568	1.564	    33.430	   291.091	   583.924	     0.000	     0.000	     1.000	     0.998
 52.00	  917.261	-5530.656	 3057.847	   7.764	 354.448	1.639	    34.004	   288.654	   597.424	     0.000	     0.000	     1.000	     1.013
 53.00	  917.388	-5530.949	 3058.014	   8.116	 364.474	1.716	    34.510	   286.217	   611.041	     0.000	     0.000	     1.000	     1.028
 54.00	  917.519	-5531.250	 3058.187	   8.477	 374.648	1.795	    34.943	   283.780	   624.776	     0.000	     0.000	     1.000	     1.043
 55.00	  917.652	-5531.560	 3058.364	   8.849	 384.972	1.876	    35.298	   281.343	   638.632	     0.000	     0.000	     1.000	     1.058
 56.00	  917.790	-5531.877	 3058.546	   9.231	 395.584	1.960	    35.594	   278.907	   652.609	     0.000	     0.000	     1.000	     1.109
 57.00	  917.934	-5532.203	 3058.733	   9.622	 406.363	2.049	    35.812	   276.470	   666.709	     0.000	     0.000	     1.000	     1.127
 58.00	  918.084	-5532.536	 3058.925	  10.024	 417.311	2.142	    35.944	   274.033	   680.932	     0.000	     0.000	     1.000	     1.145
 59.00	  918.240	-5532.878	 3059.121	  10.436	 428.433	2.239	    35.989	   271.596	   695.281	     0.000	     0.000	     1.000	     1.164
 60.00	  918.402	-5533.228	 3059.323	  10.858	 439.743	2.341	    35.946	   269.159	   709.755	     0.000	     0.000	     1.000	     1.184
 61.00	  918.570	-5533.586	 3059.528	  11.290	 449.553	2.448	    35.300	   266.722	   724.354	     0.000	     0.000	     1.000	     1.035
 62.00	  918.744	-5533.951	 3059.739	  11.732	 459.540	2.560	    34.423	   264.286	   739.071	     0.000	     0.000	     1.000	     1.054
 63.00	  918.925	-5534.323	 3059.953	  12.182	 469.708	2.676	    33.514	   261.849	   753.909	     0.000	     0.000	     1.000	     1.073
 64.00	  919.111	-5534.702	 3060.172	  12.641	 480.056	2.797	    32.575	   259.412	   768.868	     0.000	     0.000	     1.000	     1.092
 65.00	  919.304	-5535.089	 3060.395	  13.111	 490.588	2.923	    31.610	   256.975	   783.947	     0.000	     0.000	     1.000	     1.112
 66.00	  919.503	-5535.483	 3060.623	  13.589	 501.305	3.055	    30.622	   254.538	   799.149	     0.000	     0.000	     1.000	     1.131
 67.00	  919.709	-5535.885	 3060.855	  14.078	 512.209	3.191	    29.614	   252.101	   814.474	     0.000	     0.000	     1.000	     1.151
 68.00	  919.921	-5536.295	 3061.092	  14.576	 523.301	3.334	    28.589	   249.664	   829.922	     0.000	     0.000	     1.000	     1.171
 69.00	  920.141	-5536.712	 3061.334	  15.084	 534.583	3.481	    27.551	   247.228	   845.495	     0.000	     0.000	     1.000	     1.191
 70.00	  920.368	-5537.137	 3061.581	  15.603	 546.056	3.635	    26.504	   244.791	   861.194	     0.000	     0.000	     1.000	     1.211
 71.00	  920.602	-5537.571	 3061.832	  16.132	 557.724	3.794	    25.450	   242.354	   877.019	     0.000	     0.000	     1.000	     1.232
 72.00	  920.844	-5538.012	 3062.088	  16.671	 569.587	3.959	    24.394	   239.917	   892.972	     0.000	     0.000	     1.000	     1.252
 73.00	  921.093	-5538.462	 3062.349	  17.221	 581.647	4.131	    23.338	   237.480	   909.053	     0.000	     0.000	     1.000	     1.273
 74.00	  921.351	-5538.920	 3062.616	  17.782	 593.905	4.309	    22.286	   235.043	   925.263	     0.000	     0.000	     1.000	     1.294
 75.00	  921.616	-5539.386	 3062.887	  18.353	 606.365	4.493	    21.241	   232.607	   941.605	     0.000	     0.000	     1.000	     1.315
 76.00	  921.889	-5539.861	 3063.164	  18.936	 619.027	4.684	    20.206	   230.170	   958.079	     0.000	     0.000	     1.000	     1.336
 77.00	  922.171	-5540.345	 3063.445	  19.530	 631.893	4.882	    19.184	   227.733	   974.686	     0.000	     0.000	     1.000	     1.358
 78.00	  922.462	-5540.837	 3063.733	  20.135	 644.966	5.087	    18.167	   225.296	   991.428	     0.000	     0.000	     1.000	     1.379
 79.00	  922.761	-5541.339	 3064.025	  20.752	 658.248	5.298	    17.097	   222.859	  1008.306	     0.000	     0.000	     1.000	     1.401
 80.00	  923.069	-5541.849	 3064.323	  21.380	 671.740	5.517	    16.056	   220.422	  1025.322	     0.000	     0.000	     1.000	     1.423
 81.00	  923.386	-5542.368	 3064.626	  22.020	 685.446	5.744	    15.047	   217.985	  1042.477	     0.000	     0.000	     1.000	     1.445
 82.00	  923.713	-5542.897	 3064.935	  22.672	 699.366	5.978	    14.071	   215.549	  1059.773	     0.000	     0.000	     1.000	     1.468
 83.00	  924.049	-5543.434	 3065.250	  23.336	 713.504	6.220	    13.130	   213.112	  1077.211	     0.000	     0.000	     1.000	     1.490
 84.00	  924.394	-5543.981	 3065.570	  24.013	 727.860	6.469	    12.226	   210.675	  1094.794	     0.000	     0.000	     1.000	     1.513
 85.00	  924.750	-5544.538	 3065.897	  24.702	 742.439	6.727	    11.359	   208.238	  1112.523	     0.000	     0.000	     1.000	     1.536
 86.10	  925.152	-5545.161	 3066.262	  25.474	 758.822	7.020	     0.000	   205.558	  1132.223	     0.000	     0.000	     1.000	     1.576
 87.10	  925.529	-5545.739	 3066.601	  26.190	 774.011	7.295	     0.000	   203.121	  1150.302	     0.000	     0.000	     1.000	     1.598
 88.10	  925.917	-5546.326	 3066.946	  26.919	 789.416	7.579	     0.000	   200.684	  1168.530	     0.000	     0.000	     1.000	     1.621
 89.10	  926.315	-5546.923	 3067.297	  27.660	 805.041	7.872	     0.000	   198.247	  1186.908	     0.000	     0.000	     1.000	     1.644
 90.10	  926.724	-5547.530	 3067.654	  28.416	 820.890	8.173	     0.000	   195.810	  1205.441	     0.000	     0.000	     1.000	     1.667
 91.10	  927.144	-5548.147	 3068.017	  29.184	 836.967	8.484	     0.000	   193.373	  1224.129	     0.000	     0.000	     1.000	     1.691
 92.10	  927.575	-5548.775	 3068.387	  29.967	 853.273	8.804	     0.000	   190.936	  1242.977	     0.000	     0.000	     1.000	     1.715
 93.10	  928.018	-5549.414	 3068.763	  30.763	 869.814	9.133	     0.000	   188.500	  1261.986	     0.000	     0.000	     1.000	     1.739
 94.10	  928.472	-5550.062	 3069.146	  31.574	 886.593	9.472	     0.000	   186.063	  1281.160	     0.000	     0.000	     1.000	     1.764
 95.10	  928.939	-5550.722	 3069.535	  32.398	 903.614	9.821	     0.000	   183.626	  1300.501	     0.000	     0.000	     1.000	     1.789
 96.10	  929.417	-5551.393	 3069.931	  33.237	 920.881	10.180	     0.000	   181.189	  1320.012	     0.000	     0.000	     1.000	     1.814
 97.10	  929.908	-5552.074	 3070.334	  34.090	 938.398	10.549	     0.000	   178.752	  1339.697	     0.000	     0.000	     1.000	     1.840
 98.10	  930.411	-5552.767	 3070.743	  34.958	 956.169	10.929	     0.000	   176.315	  1359.558	     0.000	     0.000	     1.000	     1.866
 99.10	  930.927	-5553.471	 3071.159	  35.841	 974.199	11.319	     0.000	   173.879	  1379.599	     0.000	     0.000	     1.000	     1.893
100.10	  931.456	-5554.186	 3071.583	  36.739	 992.491	11.719	     0.000	   171.442	  1399.822	     0.000	     0.000	     1.000	     1.920
101.10	  931.998	-5554.913	 3072.013	  37.652	1011.051	12.131	     0.000	   169.005	  1420.232	     0.000	     0.000	     1.000	     1.948
102.10	  932.554	-5555.651	 3072.451	  38.581	1029.883	12.554	     0.000	   166.568	  1440.832	     0.000	     0.000	     1.000	     1.976
103.10	  933.123	-5556.401	 3072.896	  39.525	1048.991	12.988	     0.000	   164.131	  1461.625	     0.000	     0.000	     1.000	     2.004
104.10	  933.706	-5557.163	 3073.348	  40.485	1068.382	13.433	     0.000	   161.694	  1482.615	     0.000	     0.000	     1.000	     2.033
105.10	  934.303	-5557.937	 3073.807	  41.462	1088.058	13.890	     0.000	   159.257	  1503.806	     0.000	     0.000	     1.000	     2.063
106.10	  934.914	-5558.723	 3074.274	  42.454	1108.027	14.359	     0.000	   156.821	  1525.201	     0.000	     0.000	     1.000	     2.093
107.10	  935.540	-5559.522	 3074.749	  43.463	1128.293	14.840	     0.000	   154.384	  1546.805	     0.000	     0.000	     1.000	     2.123
108.10	  936.181	-5560.333	 3075.231	  44.489	1148.861	15.333	     0.000	   151.947	  1568.621	     0.000	     0.000	     1.000	     2.155
109.10	  936.837	-5561.156	 3075.722	  45.531	1169.738	15.839	     0.000	   149.510	  1590.654	     0.000	     0.000	     1.000	     2.186
110.10	  937.508	-5561.993	 3076.220	  46.591	1190.928	16.358	     0.000	   147.073	  1612.909	     0.000	     0.000	     1.000	     2.218
111.10	  938.194	-5562.842	 3076.726	  47.668	1212.439	16.889	     0.000	   144.636	  1635.390	     0.000	     0.000	     1.000	     2.251
112.10	  938.897	-5563.705	 3077.240	  48.763	1234.276	17.434	     0.000	   142.200	  1658.100	     0.000	     0.000	     1.000	     2.285
113.10	  939.615	-5564.581	 3077.762	  49.875	1256.445	17.991	     0.000	   139.763	  1681.046	     0.000	     0.000	     1.000	     2.319
114.10	  940.350	-5565.470	 3078.293	  51.006	1278.954	18.563	     0.000	   137.326	  1704.233	     0.000	     0.000	     1.000	     2.354
115.10	  941.102	-5566.373	 3078.832	  52.155	1301.808	19.148	     0.000	   134.889	  1727.664	     0.000	     0.000	     1.000	     2.389
116.10	  941.870	-5567.290	 3079.380	  53.322	1325.015	19.747	     0.000	   132.452	  1751.346	     0.000	     0.000	     1.000	     2.425
117.10	  942.655	-5568.221	 3079.937	  54.509	1348.582	20.360	     0.000	   130.015	  1775.283	     0.000	     0.000	     1.000	     2.462
118.10	  943.458	-5569.166	 3080.502	  55.714	1372.517	20.988	     0.000	   127.578	  1799.482	     0.000	     0.000	     1.000	     2.500
119.10	  944.279	-5570.126	 3081.076	  56.939	1396.826	21.630	     0.000	   125.142	  1823.948	     0.000	     0.000	     1.000	     2.538
120.10	  945.118	-5571.100	 3081.659	  58.184	1421.519	22.288	     0.000	   122.705	  1848.687	     0.000	     0.000	     1.000	     2.578
121.10	  945.974	-5572.089	 3082.252	  59.448	1446.603	22.960	     0.000	   120.268	  1873.706	     0.000	     0.000	     1.000	     2.618
122.10	  946.850	-5573.093	 3082.853	  60.733	1472.086	23.648	     0.000	   117.831	  1899.010	     0.000	     0.000	     1.000	     2.659
123.10	  947.745	-5574.113	 3083.464	  62.039	1497.978	24.352	     0.000	   115.394	  1924.607	     0.000	     0.000	     1.000	     2.701
124.10	  948.658	-5575.148	 3084.085	  63.365	1524.288	25.072	     0.000	   112.957	  1950.502	     0.000	     0.000	     1.000	     2.743
125.10	  949.592	-5576.198	 3084.715	  64.713	1551.024	25.808	     0.000	   110.520	  1976.704	     0.000	     0.000	     1.000	     2.787
126.10	  950.545	-5577.265	 3085.356	  66.082	1578.198	26.560	     0.000	   108.084	  2003.220	     0.000	     0.000	     1.000	     2.832
127.10	  951.519	-5578.348	 3086.006	  67.473	1605.818	27.329	     0.000	   105.647	  2030.056	     0.000	     0.000	     1.000	     2.878
128.10	  952.513	-5579.447	 3086.667	  68.886	1633.895	28.115	     0.000	   103.210	  2057.221	     0.000	     0.000	     1.000	     2.924
129.10	  953.528	-5580.563	 3087.337	  70.322	1662.441	28.918	     0.000	   100.773	  2084.724	     0.000	     0.000	     1.000	     2.972
130.10	  954.564	-5581.696	 3088.019	  71.781	1691.466	29.739	     0.000	    98.336	  2112.572	     0.000	     0.000	     1.000	     3.022
131.10	  955.622	-5582.846	 3088.711	  73.263	1720.982	30.578	     0.000	    95.899	  2140.775	     0.000	     0.000	     1.000	     3.072
132.10	  956.702	-5584.014	 3089.414	  74.769	1751.001	31.434	     0.000	    93.463	  2169.341	     0.000	     0.000	     1.000	     3.124
133.10	  957.805	-5585.199	 3090.127	  76.299	1781.537	32.310	     0.000	    91.026	  2198.281	     0.000	     0.000	     1.000	     3.176
134.10	  958.930	-5586.403	 3090.852	  77.853	1812.601	33.204	     0.000	    88.589	  2227.603	     0.000	     0.000	     1.000	     3.231
135.10	  960.078	-5587.625	 3091.589	  79.432	1844.209	34.117	     0.000	    86.152	  2257.318	     0.000	     0.000	     1.000	     3.286
136.10	  961.251	-5588.866	 3092.337	  81.037	1876.373	35.049	     0.000	    83.715	  2287.438	     0.000	     0.000	     1.000	     3.344
137.10	  962.447	-5590.125	 3093.096	  82.667	1909.110	36.002	     0.000	    81.278	  2317.972	     0.000	     0.000	     1.000	     3.402
138.10	  963.667	-5591.404	 3093.868	  84.324	1942.434	36.974	     0.000	    78.841	  2348.933	     0.000	     0.000	     1.000	     3.462
139.10	  964.913	-5592.703	 3094.652	  86.007	1976.361	37.967	     0.000	    76.405	  2380.333	     0.000	     0.000	     1.000	     3.524
140.10	  966.184	-5594.022	 3095.448	  87.718	2010.909	38.980	     0.000	    73.968	  2412.184	     0.000	     0.000	     1.000	     3.588
141.10	  967.480	-5595.360	 3096.256	  89.456	2042.840	40.015	     0.000	    71.775	  2441.247	     0.000	     0.000	     0.000	     0.584
142.10	  968.789	-5596.705	 3097.069	  91.204	2045.805	41.060	     0.000	    71.775	  2441.247	     0.000	     0.000	     0.000	     0.589
143.10	  970.102	-5598.049	 3097.881	  92.952	2046.613	42.110	     0.000	    71.775	  2441.247	     0.000	     0.000	     0.000	     2.289
144.10	  971.417	-5599.386	 3098.689	  94.693	2038.522	43.162	     0.000	    71.775	  2441.247	     0.000	     0.000	     0.000	     0.971
145.10	  972.729	-5600.715	 3099.493	  96.426	2030.445	44.212	     0.000	    71.775	  2441.247	     0.000	     0.000	     0.000	     0.970
146.10	  974.040	-5602.036	 3100.293	  98.149	2022.384	45.262	     0.000	    71.775	  2441.247	     0.000	     0.000	     0.000	     0.970
147.10	  975.350	-5603.349	 3101.087	  99.862	2014.337	46.311	     0.000	    71.775	  2441.247	     0.000	     0.000	     0.000	     0.969
148.10	  976.658	-5604.655	 3101.878	 101.567	2006.306	47.360	     0.000	    71.775	  2441.247	     0.000	     0.000	     0.000	     0.969
149.10	  977.964	-5605.952	 3102.663	 103.262	1998.290	48.407	     0.000	    71.775	  2441.247	     0.000	     0.000	     0.000	     0.968
150.10	  979.268	-5607.241	 3103.445	 104.949	1990.290	49.454	     0.000	    71.775	  2441.247	     0.000	     0.000	     0.000	     0.968
151.10	  980.571	-5608.522	 3104.221	 106.626	1982.305	50.500	     0.000	    71.775	  2441.247	     0.000	     0.000	     0.000	     0.967
152.10	  981.873	-5609.795	 3104.993	 108.294	1974.336	51.546	     0.000	    71.775	  2441.247	     0.000	     0.000	     0.000	     0.967
153.10	  983.172	-5611.060	 3105.761	 109.953	1966.383	52.590	     0.000	    71.775	  2441.247	     0.000	     0.000	     0.000	     0.966
154.10	  984.471	-5612.318	 3106.524	 111.603	1958.445	53.634	     0.000	    71.775	  2441.247	     0.000	     0.000	     0.000	     0.966
155.10	  985.767	-5613.567	 3107.282	 113.243	1950.524	54.677	     0.000	    71.775	  2441.247	     0.000	     0.000	     0.000	     0.965
156.10	  987.062	-5614.808	 3108.036	 114.875	1942.618	55.719	     0.000	    71.775	  2441.247	     0.000	     0.000	     0.000	     0.965
157.10	  988.355	-5616.041	 3108.786	 116.497	1934.728	56.761	     0.000	    71.775	  2441.247	     0.000	     0.000	     0.000	     0.964
158.10	  989.647	-5617.267	 3109.531	 118.111	1926.855	57.802	     0.000	    71.775	  2441.247	     0.000	     0.000	     0.000	     0.964
159.10	  990.937	-5618.484	 3110.271	 119.715	1918.998	58.842	     0.000	    71.775	  2441.247	     0.000	     0.000	     0.000	     0.964
160.10	  992.225	-5619.694	 3111.007	 121.310	1911.158	59.882	     0.000	    71.775	  2441.247	     0.000	     0.000	     0.000	     0.963
161.10	  993.512	-5620.895	 3111.738	 122.896	1903.334	60.920	     0.000	    71.775	  2441.247	     0.000	     0.000	     0.000	     0.963
162.10	  994.797	-5622.089	 3112.465	 124.473	1895.526	61.959	     0.000	    71.775	  2441.247	     0.000	     0.000	     0.000	     0.962
163.10	  996.081	-5623.275	 3113.188	 126.040	1887.736	62.996	     0.000	    71.775	  2441.247	     0.000	     0.000	     0.000	     0.962
164.10	  997.363	-5624.452	 3113.905	 127.599	1879.962	64.033	     0.000	    71.775	  2441.247	     0.000	     0.000	     0.000	     0.961
165.10	  998.643	-5625.622	 3114.619	 129.149	1872.206	65.069	     0.000	    71.775	  2441.247	     0.000	     0.000	     0.000	     0.961
166.10	  999.922	-5626.784	 3115.327	 130.689	1864.466	66.104	     0.000	    71.775	  2441.247	     0.000	     0.000	     0.000	     0.960
167.10	 1001.199	-5627.938	 3116.032	 132.221	1856.744	67.139	     0.000	    71.775	  2441.247	     0.000	     0.000	     0.000	     0.960
168.10	 1002.475	-5629.085	 3116.732	 133.743	1851.615	68.173	     0.000	    71.693	  2443.821	     0.000	     0.000	     1.000	     1.920
169.10	 1003.736	-5630.227	 3117.428	 135.259	1829.226	69.193	     0.000	    70.881	  2469.683	     0.000	     0.000	     1.000	     2.819
170.10	 1004.969	-5631.366	 3118.121	 136.765	1806.865	70.188	     0.000	    70.069	  2495.767	     0.000	     0.000	     1.000	     2.840
171.10	 1006.175	-5632.501	 3118.809	 138.262	1784.539	71.157	     0.000	    69.257	  2522.077	     0.000	     0.000	     1.000	     2.862
172.10	 1007.353	-5633.633	 3119.493	 139.751	1762.257	72.098	     0.000	    68.444	  2548.615	     0.000	     0.000	     1.000	     2.884
173.10	 1008.503	-5634.761	 3120.173	 141.230	1740.031	73.014	     0.000	    67.632	  2575.387	     0.000	     0.000	     1.000	     2.907
174.10	 1009.625	-5635.886	 3120.850	 142.700	1717.870	73.902	     0.000	    66.820	  2602.396	     0.000	     0.000	     1.000	     2.930
175.10	 1010.718	-5637.008	 3121.522	 144.161	1695.786	74.763	     0.000	    66.007	  2629.646	     0.000	     0.000	     1.000	     2.953
176.10	 1011.783	-5638.126	 3122.190	 145.612	1673.792	75.597	     0.000	    65.195	  2657.142	     0.000	     0.000	     1.000	     2.977
177.10	 1012.820	-5639.241	 3122.853	 147.055	1651.901	76.403	     0.000	    64.383	  2684.889	     0.000	     0.000	     1.000	     3.001
178.10	 1013.826	-5640.353	 3123.513	 148.489	1630.129	77.181	     0.000	    63.571	  2712.891	     0.000	     0.000	     1.000	     3.026
179.10	 1014.804	-5641.462	 3124.169	 149.913	1608.491	77.932	     0.000	    62.758	  2741.152	     0.000	     0.000	     1.000	     3.051
180.10	 1015.752	-5642.567	 3124.821	 151.328	1587.003	78.654	     0.000	    61.946	  2769.678	     0.000	     0.000	     1.000	     3.077
181.10	 1016.670	-5643.670	 3125.469	 152.734	1565.685	79.347	     0.000	    61.134	  2798.474	     0.000	     0.000	     1.000	     3.103
182.10	 1017.558	-5644.770	 3126.112	 154.131	1544.557	80.012	     0.000	    60.321	  2827.544	     0.000	     0.000	     1.000	     3.130
183.10	 1018.416	-5645.866	 3126.752	 155.519	1523.639	80.648	     0.000	    59.509	  2856.895	     0.000	     0.000	     1.000	     3.157
184.10	 1019.242	-5646.960	 3127.388	 156.898	1502.955	81.255	     0.000	    58.697	  2886.531	     0.000	     0.000	     1.000	     3.185
185.10	 1020.038	-5648.051	 3128.019	 158.267	1482.528	81.832	     0.000	    57.885	  2916.458	     0.000	     0.000	     1.000	     3.214
186.10	 1020.803	-5649.139	 3128.647	 159.627	1462.387	82.379	     0.000	    57.072	  2946.682	     0.000	     0.000	     1.000	     3.243
187.10	 1021.536	-5650.224	 3129.271	 160.978	1442.558	82.896	     0.000	    56.260	  2977.208	     0.000	     0.000	     1.000	     3.273
188.10	 1022.237	-5651.306	 3129.890	 162.320	1423.073	83.383	     0.000	    55.448	  3008.044	     0.000	     0.000	     1.000	     3.303
189.10	 1022.905	-5652.386	 3130.506	 163.653	1403.964	83.840	     0.000	    54.635	  3039.195	     0.000	     0.000	     1.000	     3.334
190.10	 1023.542	-5653.463	 3131.118	 164.976	1385.266	84.265	     0.000	    53.823	  3070.667	     0.000	     0.000	     1.000	     3.366
191.10	 1024.145	-5654.538	 3131.725	 166.291	1367.015	84.659	     0.000	    53.011	  3102.468	     0.000	     0.000	     1.000	     3.398
192.10	 1024.716	-5655.610	 3132.329	 167.596	1349.252	85.022	     0.000	    52.199	  3134.605	     0.000	     0.000	     1.000	     3.431
193.10	 1025.252	-5656.680	 3132.929	 168.892	1332.018	85.353	     0.000	    51.386	  3167.084	     0.000	     0.000	     1.000	     3.465
194.10	 1025.755	-5657.748	 3133.525	 170.178	1315.357	85.652	     0.000	    50.574	  3199.913	     0.000	     0.000	     1.000	     3.500
195.10	 1026.224	-5658.813	 3134.117	 171.456	1299.317	85.918	     0.000	    49.762	  3233.099	     0.000	     0.000	     1.000	     3.535
196.10	 1026.659	-5659.876	 3134.705	 172.724	1283.948	86.152	     0.000	    48.950	  3266.651	     0.000	     0.000	     1.000	     3.572
197.10	 1027.058	-5660.936	 3135.289	 173.983	1269.300	86.352	     0.000	    48.137	  3300.577	     0.000	     0.000	     1.000	     3.609
198.10	 1027.422	-5661.995	 3135.869	 175.233	1255.429	86.519	     0.000	    47.325	  3334.884	     0.000	     0.000	     1.000	     3.647
199.10	 1027.750	-5663.052	 3136.445	 176.473	1242.391	86.652	     0.000	    46.513	  3369.583	     0.000	     0.000	     1.000	     3.686
200.10	 1028.043	-5664.106	 3137.018	 177.705	1230.245	86.751	     0.000	    45.700	  3404.681	     0.000	     0.000	     1.000	     3.725
201.10	 1028.299	-5665.159	 3137.586	 178.927	1219.052	86.816	     0.000	    44.888	  3440.187	     0.000	     0.000	     1.000	     3.766
202.10	 1028.518	-5666.210	 3138.151	 180.139	1208.874	86.845	     0.000	    44.076	  3476.113	     0.000	     0.000	     1.000	     3.808
203.10	 1028.700	-5667.259	 3138.711	 181.343	1199.775	86.839	     0.000	    43.264	  3512.467	     0.000	     0.000	     1.000	     3.851
204.10	 1028.844	-5668.306	 3139.268	 182.537	1191.818	86.798	     0.000	    42.451	  3549.261	     0.000	     0.000	     1.000	     3.895
205.10	 1028.950	-5669.352	 3139.821	 183.722	1185.069	86.720	     0.000	    41.639	  3586.503	     0.000	     0.000	     1.000	     3.940
206.10	 1029.017	-5670.396	 3140.370	 184.898	1179.592	86.606	     0.000	    40.827	  3624.207	     0.000	     0.000	     1.000	     3.986
207.10	 1029.046	-5671.438	 3140.916	 186.065	1175.450	86.454	     0.000	    40.014	  3662.384	     0.000	     0.000	     1.000	     4.033
208.10	 1029.035	-5672.480	 3141.457	 187.222	1172.707	86.266	     0.000	    39.202	  3701.044	     0.000	     0.000	     1.000	     4.082
209.10	 1028.984	-5673.519	 3141.995	 188.371	1170.582	86.039	     0.000	    38.471	  3736.263	     0.000	     0.000	     0.000	     0.943
210.10	 1028.920	-5674.553	 3142.528	 189.509	1161.578	85.799	     0.000	    38.471	  3736.263	     0.000	     0.000	     0.000	     0.943
211.10	 1028.854	-5675.579	 3143.057	 190.639	1152.581	85.559	     0.000	    38.471	  3736.263	     0.000	     0.000	     0.000	     0.943
212.10	 1028.786	-5676.597	 3143.581	 191.760	1143.590	85.319	     0.000	    38.471	  3736.263	     0.000	     0.000	     0.000	     0.943
213.10	 1028.717	-5677.607	 3144.101	 192.871	1134.606	85.079	     0.000	    38.471	  3736.263	     0.000	     0.000	     0.000	     0.942
214.10	 1028.647	-5678.610	 3144.617	 193.973	1125.629	84.838	     0.000	    38.471	  3736.263	     0.000	     0.000	     0.000	     0.942
215.10	 1028.574	-5679.604	 3145.128	 195.066	1116.659	84.598	     0.000	    38.471	  3736.263	     0.000	     0.000	     0.000	     0.942
216.10	 1028.500	-5680.590	 3145.635	 196.149	1107.696	84.358	     0.000	    38.471	  3736.263	     0.000	     0.000	     0.000	     0.941
217.10	 1028.425	-5681.568	 3146.138	 197.223	1098.740	84.117	     0.000	    38.471	  3736.263	     0.000	     0.000	     0.000	     0.941
218.10	 1028.348	-5682.538	 3146.636	 198.289	1089.791	83.877	     0.000	    38.471	  3736.263	     0.000	     0.000	     0.000	     0.941
219.10	 1028.269	-5683.501	 3147.129	 199.344	1080.849	83.636	     0.000	    38.471	  3736.263	     0.000	     0.000	     0.000	     0.940
220.10	 1028.189	-5684.455	 3147.618	 200.391	1071.914	83.395	     0.000	    38.471	  3736.263	     0.000	     0.000	     0.000	     0.940
221.10	 1028.108	-5685.402	 3148.103	 201.429	1062.987	83.155	     0.000	    38.471	  3736.263	     0.000	     0.000	     0.000	     0.940
222.10	 1028.024	-5686.340	 3148.584	 202.457	1054.066	82.914	     0.000	    38.471	  3736.263	     0.000	     0.000	     0.000	     0.939
223.10	 1027.939	-5687.271	 3149.060	 203.476	1045.154	82.673	     0.000	    38.471	  3736.263	     0.000	     0.000	     0.000	     0.939
224.10	 1027.853	-5688.194	 3149.531	 204.486	1036.249	82.433	     0.000	    38.471	  3736.263	     0.000	     0.000	     0.000	     0.939
225.10	 1027.765	-5689.108	 3149.998	 205.487	1027.351	82.192	     0.000	    38.471	  3736.263	     0.000	     0.000	     0.000	     0.939
226.10	 1027.675	-5690.015	 3150.461	 206.478	1018.461	81.951	     0.000	    38.471	  3736.263	     0.000	     0.000	     0.000	     0.938
227.10	 1027.584	-5690.914	 3150.920	 207.460	1009.580	81.710	     0.000	    38.471	  3736.263	     0.000	     0.000	     0.000	     0.938
228.10	 1027.492	-5691.805	 3151.374	 208.434	1000.706	81.469	     0.000	    38.471	  3736.263	     0.000	     0.000	     0.000	     0.938
229.10	 1027.397	-5692.688	 3151.823	 209.398	 991.840	81.228	     0.000	    38.471	  3736.263	     0.000	     0.000	     0.000	     0.937
230.10	 1027.301	-5693.563	 3152.268	 210.352	 982.982	80.987	     0.000	    38.471	  3736.263	     0.000	     0.000	     0.000	     0.937
231.10	 1027.204	-5694.430	 3152.709	 211.298	 974.133	80.746	     0.000	    38.471	  3736.263	     0.000	     0.000	     0.000	     0.937
232.10	 1027.105	-5695.290	 3153.146	 212.234	 965.292	80.505	     0.000	    38.471	  3736.263	     0.000	     0.000	     0.000	     0.937
233.10	 1027.005	-5696.141	 3153.578	 213.162	 956.459	80.263	     0.000	    38.471	  3736.263	     0.000	     0.000	     0.000	     0.936
234.10	 1026.903	-5696.985	 3154.005	 214.080	 947.635	80.022	     0.000	    38.471	  3736.263	     0.000	     0.000	     0.000	     0.936
235.10	 1026.799	-5697.820	 3154.428	 214.989	 938.820	79.781	     0.000	    38.471	  3736.263	     0.000	     0.000	     0.000	     0.936
236.10	 1026.694	-5698.648	 3154.847	 215.888	 930.015	79.540	     0.000	    38.471	  3736.263	     0.000	     0.000	     0.000	     0.936
237.10	 1026.587	-5699.467	 3155.262	 216.779	 921.218	79.298	     0.000	    38.471	  3736.263	     0.000	     0.000	     0.000	     0.935
238.10	 1026.479	-5700.279	 3155.672	 217.660	 912.430	79.057	     0.000	    38.471	  3736.263	     0.000	     0.000	     0.000	     0.935
239.10	 1026.370	-5701.083	 3156.078	 218.533	 903.652	78.816	     0.000	    38.471	  3736.263	     0.000	     0.000	     0.000	     0.935
240.10	 1026.258	-5701.879	 3156.479	 219.396	 894.884	78.574	     0.000	    38.471	  3736.263	     0.000	     0.000	     0.000	     0.935
241.10	 1026.146	-5702.667	 3156.876	 220.250	 886.126	78.333	     0.000	    38.471	  3736.263	     0.000	     0.000	     0.000	     0.934
242.10	 1026.031	-5703.448	 3157.268	 221.094	 877.377	78.091	     0.000	    38.471	  3736.263	     0.000	     0.000	     0.000	     0.934
243.10	 1025.915	-5704.220	 3157.657	 221.930	 868.639	77.849	     0.000	    38.471	  3736.263	     0.000	     0.000	     0.000	     0.934
244.10	 1025.798	-5704.984	 3158.040	 222.757	 859.911	77.608	     0.000	    38.471	  3736.263	     0.000	     0.000	     0.000	     0.934
245.10	 1025.679	-5705.741	 3158.420	 223.574	 851.194	77.366	     0.000	    38.471	  3736.263	     0.000	     0.000	     0.000	     0.933
246.10	 1025.559	-5706.490	 3158.795	 224.382	 842.488	77.124	     0.000	    38.471	  3736.263	     0.000	     0.000	     0.000	     0.933
247.10	 1025.437	-5707.230	 3159.166	 225.181	 833.793	76.883	     0.000	    38.471	  3736.263	     0.000	     0.000	     0.000	     0.933
248.10	 1025.313	-5707.963	 3159.532	 225.971	 825.109	76.641	     0.000	    38.471	  3736.263	     0.000	     0.000	     0.000	     0.933
249.10	 1025.188	-5708.688	 3159.894	 226.752	 816.438	76.399	     0.000	    38.471	  3736.263	     0.000	     0.000	     0.000	     0.933
250.10	 1025.062	-5709.405	 3160.251	 227.524	 807.778	76.157	     0.000	    38.471	  3736.263	     0.000	     0.000	     0.000	     0.932
251.10	 1024.934	-5710.115	 3160.605	 228.286	 799.130	75.916	     0.000	    38.471	  3736.263	     0.000	     0.000	     0.000	     0.932
252.10	 1024.804	-5710.816	 3160.953	 229.040	 790.495	75.674	     0.000	    38.471	  3736.263	     0.000	     0.000	     0.000	     0.932
253.10	 1024.673	-5711.509	 3161.298	 229.784	 781.872	75.432	     0.000	    38.471	  3736.263	     0.000	     0.000	     0.000	     0.932
254.10	 1024.541	-5712.195	 3161.638	 230.519	 773.263	75.190	     0.000	    38.471	  3736.263	     0.000	     0.000	     0.000	     0.931
255.10	 1024.407	-5712.873	 3161.974	 231.245	 764.668	74.948	     0.000	    38.471	  3736.263	     0.000	     0.000	     0.000	     0.931
256.10	 1024.271	-5713.543	 3162.305	 231.962	 756.086	74.706	     0.000	    38.471	  3736.263	     0.000	     0.000	     0.000	     0.931
257.10	 1024.134	-5714.205	 3162.632	 232.670	 747.519	74.464	     0.000	    38.471	  3736.263	     0.000	     0.000	     0.000	     0.931
258.10	 1023.995	-5714.859	 3162.955	 233.369	 738.966	74.222	     0.000	    38.471	  3736.263	     0.000	     0.000	     0.000	     0.931
259.10	 1023.855	-5715.505	 3163.273	 234.059	 730.429	73.980	     0.000	    38.471	  3736.263	     0.000	     0.000	     0.000	     0.930
260.10	 1023.714	-5716.143	 3163.587	 234.739	 721.907	73.738	     0.000	    38.471	  3736.263	     0.000	     0.000	     0.000	     0.930
261.10	 1023.571	-5716.774	 3163.896	 235.410	 713.401	73.495	     0.000	    38.471	  3736.263	     0.000	     0.000	     0.000	     0.930
262.10	 1023.426	-5717.396	 3164.202	 236.073	 704.911	73.253	     0.000	    38.471	  3736.263	     0.000	     0.000	     0.000	     0.930
263.10	 1023.280	-5718.011	 3164.502	 236.726	 696.439	73.011	     0.000	    38.471	  3736.263	     0.000	     0.000	     0.000	     0.930
264.10	 1023.132	-5718.618	 3164.799	 237.370	 687.984	72.769	     0.000	    38.471	  3736.263	     0.000	     0.000	     0.000	     0.930
265.10	 1022.983	-5719.217	 3165.091	 238.005	 679.547	72.527	     0.000	    38.471	  3736.263	     0.000	     0.000	     0.000	     0.929
266.10	 1022.833	-5719.808	 3165.379	 238.631	 671.129	72.284	     0.000	    38.471	  3736.263	     0.000	     0.000	     0.000	     0.929
267.10	 1022.681	-5720.391	 3165.662	 239.248	 662.730	72.042	     0.000	    38.471	  3736.263	     0.000	     0.000	     0.000	     0.929
268.10	 1022.527	-5720.967	 3165.941	 239.855	 654.351	71.800	     0.000	    38.471	  3736.263	     0.000	     0.000	     0.000	     0.929
269.10	 1022.372	-5721.534	 3166.216	 240.454	 645.993	71.557	     0.000	    38.471	  3736.263	     0.000	     0.000	     0.000	     0.929
270.10	 1022.216	-5722.094	 3166.486	 241.043	 637.656	71.315	     0.000	    38.471	  3736.263	     0.000	     0.000	     0.000	     0.929
271.10	 1022.058	-5722.646	 3166.752	 241.624	 629.341	71.073	     0.000	    38.471	  3736.263	     0.000	     0.000	     0.000	     0.928
272.10	 1021.898	-5723.190	 3167.014	 242.195	 621.049	70.830	     0.000	    38.471	  3736.263	     0.000	     0.000	     0.000	     0.928
273.10	 1021.737	-5723.726	 3167.271	 242.757	 612.781	70.588	     0.000	    38.471	  3736.263	     0.000	     0.000	     0.000	     0.928
274.10	 1021.575	-5724.255	 3167.524	 243.310	 604.537	70.345	     0.000	    38.471	  3736.263	     0.000	     0.000	     0.000	     0.928
275.10	 1021.411	-5724.775	 3167.773	 243.854	 596.319	70.103	     0.000	    38.471	  3736.263	     0.000	     0.000	     0.000	     0.928
276.10	 1021.246	-5725.288	 3168.017	 244.389	 588.127	69.861	     0.000	    38.471	  3736.263	     0.000	     0.000	     0.000	     0.928
277.10	 1021.079	-5725.792	 3168.257	 244.915	 579.963	69.618	     0.000	    38.471	  3736.263	     0.000	     0.000	     0.000	     0.927
278.10	 1020.911	-5726.289	 3168.493	 245.432	 571.828	69.375	     0.000	    38.471	  3736.263	     0.000	     0.000	     0.000	     0.927
279.10	 1020.741	-5726.778	 3168.724	 245.940	 563.722	69.133	     0.000	    38.471	  3736.263	     0.000	     0.000	     0.000	     0.927
280.10	 1020.570	-5727.259	 3168.951	 246.438	 555.647	68.890	     0.000	    38.471	  3736.263	     0.000	     0.000	     0.000	     0.927
281.10	 1020.397	-5727.733	 3169.173	 246.928	 547.605	68.648	     0.000	    38.471	  3736.263	     0.000	     0.000	     0.000	     0.927
282.10	 1020.223	-5728.198	 3169.391	 247.408	 539.596	68.405	     0.000	    38.471	  3736.263	     0.000	     0.000	     0.000	     0.927
283.10	 1020.047	-5728.656	 3169.605	 247.880	 531.622	68.163	     0.000	    38.471	  3736.263	     0.000	     0.000	     0.000	     0.927
284.10	 1019.870	-5729.106	 3169.815	 248.342	 523.685	67.920	     0.000	    38.471	  3736.263	     0.000	     0.000	     0.000	     0.926
285.10	 1019.692	-5729.548	 3170.020	 248.795	 515.786	67.677	     0.000	    38.471	  3736.263	     0.000	     0.000	     0.000	     0.926
286.10	 1019.512	-5729.982	 3170.221	 249.239	 507.927	67.435	     0.000	    38.471	  3736.263	     0.000	     0.000	     0.000	     0.926
287.10	 1019.331	-5730.408	 3170.417	 249.674	 500.109	67.192	     0.000	    38.471	  3736.263	     0.000	     0.000	     0.000	     0.926
288.10	 1019.148	-5730.827	 3170.609	 250.101	 492.335	66.950	     0.000	    38.471	  3736.263	     0.000	     0.000	     0.000	     0.926
289.10	 1018.963	-5731.237	 3170.797	 250.517	 484.607	66.707	     0.000	    38.471	  3736.263	     0.000	     0.000	     0.000	     0.926
290.10	 1018.778	-5731.640	 3170.981	 250.925	 476.926	66.464	     0.000	    38.471	  3736.263	     0.000	     0.000	     0.000	     0.926
291.10	 1018.590	-5732.035	 3171.160	 251.324	 469.295	66.221	     0.000	    38.471	  3736.263	     0.000	     0.000	     0.000	     0.926
292.10	 1018.402	-5732.422	 3171.334	 251.714	 461.717	65.979	     0.000	    38.471	  3736.263	     0.000	     0.000	     0.000	     0.926
293.10	 1018.212	-5732.801	 3171.505	 252.095	 454.193	65.736	     0.000	    38.471	  3736.263	     0.000	     0.000	     0.000	     0.925
294.10	 1018.020	-5733.173	 3171.671	 252.466	 446.727	65.493	     0.000	    38.471	  3736.263	     0.000	     0.000	     0.000	     0.925
295.10	 1017.827	-5733.536	 3171.833	 252.829	 439.321	65.251	     0.000	    38.471	  3736.263	     0.000	     0.000	     0.000	     0.925
296.10	 1017.633	-5733.892	 3171.990	 253.182	 431.979	65.008	     0.000	    38.471	  3736.263	     0.000	     0.000	     0.000	     0.925
297.10	 1017.437	-5734.240	 3172.143	 253.527	 424.703	64.765	     0.000	    38.471	  3736.263	     0.000	     0.000	     0.000	     0.925
298.10	 1017.240	-5734.580	 3172.292	 253.862	 417.497	64.522	     0.000	    38.471	  3736.263	     0.000	     0.000	     0.000	     0.925
299.00	 1017.061	-5734.880	 3172.422	 254.156	 411.075	64.304	     0.000	    38.471	  3736.263	     0.000	     0.000	     0.000	     0.925
300.00	 1016.861	-5735.205	 3172.563	 254.475	 404.012	64.061	     0.000	    38.471	  3736.263	     0.000	     0.000	     0.000	     0.925
301.00	 1016.659	-5735.522	 3172.699	 254.784	 397.030	63.818	     0.000	    38.471	  3736.263	     0.000	     0.000	     0.000	     0.925
302.00	 1016.456	-5735.832	 3172.831	 255.084	 390.134	63.576	     0.000	    38.471	  3736.263	     0.000	     0.000	     0.000	     0.925
303.00	 1016.252	-5736.133	 3172.958	 255.375	 383.328	63.333	     0.000	    38.471	  3736.263	     0.000	     0.000	     0.000	     0.924
304.00	 1016.046	-5736.427	 3173.082	 255.657	 376.616	63.090	     0.000	    38.471	  3736.263	     0.000	     0.000	     0.000	     0.924
305.00	 1015.839	-5736.713	 3173.200	 255.930	 370.004	62.847	     0.000	    38.471	  3736.263	     0.000	     0.000	     0.000	     0.924
306.00	 1015.631	-5736.992	 3173.315	 256.194	 363.498	62.604	     0.000	    38.471	  3736.263	     0.000	     0.000	     0.000	     0.924
307.00	 1015.421	-5737.262	 3173.425	 256.449	 357.102	62.362	     0.000	    38.471	  3736.263	     0.000	     0.000	     0.000	     0.924
308.00	 1015.209	-5737.524	 3173.531	 256.694	 350.823	62.119	     0.000	    38.471	  3736.263	     0.000	     0.000	     0.000	     0.924
309.00	 1014.997	-5737.779	 3173.633	 256.931	 344.666	61.876	     0.000	    38.471	  3736.263	     0.000	     0.000	     0.000	     0.924
310.00	 1014.782	-5738.026	 3173.730	 257.159	 338.640	61.633	     0.000	    38.471	  3736.263	     0.000	     0.000	     0.000	     0.924
311.00	 1014.567	-5738.265	 3173.823	 257.377	 332.751	61.391	     0.000	    38.471	  3736.263	     0.000	     0.000	     0.000	     0.924
312.00	 1014.350	-5738.496	 3173.911	 257.587	 327.005	61.148	     0.000	    38.471	  3736.263	     0.000	     0.000	     0.000	     0.924
313.00	 1014.131	-5738.720	 3173.995	 257.788	 321.411	60.905	     0.000	    38.471	  3736.263	     0.000	     0.000	     0.000	     0.924
314.00	 1013.911	-5738.935	 3174.075	 257.979	 315.977	60.662	     0.000	    38.471	  3736.263	     0.000	     0.000	     0.000	     0.924
315.00	 1013.690	-5739.143	 3174.151	 258.161	 310.711	60.419	     0.000	    38.471	  3736.263	     0.000	     0.000	     0.000	     0.924
316.00	 1013.467	-5739.343	 3174.222	 258.335	 305.621	60.177	     0.000	    38.471	  3736.263	     0.000	     0.000	     0.000	     0.924
317.00	 1013.243	-5739.535	 3174.289	 258.499	 300.718	59.934	     0.000	    38.471	  3736.263	     0.000	     0.000	     0.000	     0.924
318.00	 1013.018	-5739.719	 3174.352	 258.655	 296.008	59.691	     0.000	    38.471	  3736.263	     0.000	     0.000	     0.000	     0.924
319.00	 1012.791	-5739.896	 3174.410	 258.801	 291.503	59.448	     0.000	    38.471	  3736.263	     0.000	     0.000	     0.000	     0.924
320.00	 1012.562	-5740.064	 3174.464	 258.938	 287.212	59.206	     0.000	    38.471	  3736.263	     0.000	     0.000	     0.000	     0.923
321.00	 1012.333	-5740.225	 3174.513	 259.066	 283.144	58.963	     0.000	    38.471	  3736.263	     0.000	     0.000	     0.000	     0.923
322.00	 1012.101	-5740.378	 3174.559	 259.185	 279.309	58.720	     0.000	    38.471	  3736.263	     0.000	     0.000	     0.000	     0.923
323.00	 1011.869	-5740.523	 3174.600	 259.295	 275.717	58.477	     0.000	    38.471	  3736.263	     0.000	     0.000	     0.000	     0.923
324.00	 1011.635	-5740.661	 3174.636	 259.397	 272.377	58.235	     0.000	    38.471	  3736.263	     0.000	     0.000	     0.000	     0.923
325.00	 1011.400	-5740.790	 3174.668	 259.489	 269.298	57.992	     0.000	    38.471	  3736.263	     0.000	     0.000	     0.000	     0.923
326.00	 1011.163	-5740.912	 3174.696	 259.571	 266.491	57.749	     0.000	    38.471	  3736.263	     0.000	     0.000	     0.000	     0.923
327.00	 1010.925	-5741.025	 3174.720	 259.645	 263.962	57.507	     0.000	    38.471	  3736.263	     0.000	     0.000	     0.000	     0.923
328.00	 1010.686	-5741.131	 3174.739	 259.710	 261.721	57.264	     0.000	    38.471	  3736.263	     0.000	     0.000	     0.000	     0.923
329.00	 1010.445	-5741.230	 3174.754	 259.766	 259.775	57.021	     0.000	    38.471	  3736.263	     0.000	     0.000	     0.000	     0.923
330.00	 1010.202	-5741.320	 3174.765	 259.813	 258.130	56.779	     0.000	    38.471	  3736.263	     0.000	     0.000	     0.000	     0.923
331.00	 1009.959	-5741.402	 3174.771	 259.851	 256.792	56.536	     0.000	    38.471	  3736.263	     0.000	     0.000	     0.000	     0.923
332.00	 1009.714	-5741.477	 3174.773	 259.879	 255.767	56.294	     0.000	    38.471	  3736.263	     0.000	     0.000	     0.000	     0.923
333.00	 1009.467	-5741.544	 3174.771	 259.899	 255.057	56.051	     0.000	    38.471	  3736.263	     0.000	     0.000	     0.000	     0.923
334.00	 1009.220	-5741.603	 3174.764	 259.910	 254.665	55.808	     0.000	    38.471	  3736.263	     0.000	     0.000	     0.000	     0.923
335.00	 1008.970	-5741.654	 3174.753	 259.911	 254.593	55.566	     0.000	    38.471	  3736.263	     0.000	     0.000	     0.000	     0.923
336.00	 1008.720	-5741.697	 3174.738	 259.904	 254.842	55.323	     0.000	    38.471	  3736.263	     0.000	     0.000	     0.000	     0.923
337.00	 1008.468	-5741.733	 3174.718	 259.887	 255.409	55.081	     0.000	    38.471	  3736.263	     0.000	     0.000	     0.000	     0.923
338.00	 1008.215	-5741.761	 3174.694	 259.862	 256.294	54.838	     0.000	    38.471	  3736.263	     0.000	     0.000	     0.000	     0.923
339.00	 1007.960	-5741.781	 3174.666	 259.827	 257.492	54.596	     0.000	    38.471	  3736.263	     0.000	     0.000	     0.000	     0.923
340.00	 1007.704	-5741.793	 3174.634	 259.784	 259.000	54.353	     0.000	    38.471	  3736.263	     0.000	     0.000	     0.000	     0.923
341.00	 1007.447	-5741.797	 3174.597	 259.731	 260.812	54.111	     0.000	    38.471	  3736.263	     0.000	     0.000	     0.000	     0.923
342.00	 1007.188	-5741.793	 3174.555	 259.669	 262.922	53.868	     0.000	    38.471	  3736.263	     0.000	     0.000	     0.000	     0.923
343.00	 1006.928	-5741.782	 3174.510	 259.599	 265.322	53.626	     0.000	    38.471	  3736.263	     0.000	     0.000	     0.000	     0.923
344.00	 1006.666	-5741.762	 3174.460	 259.519	 268.006	53.383	     0.000	    38.471	  3736.263	     0.000	     0.000	     0.000	     0.923
345.00	 1006.404	-5741.735	 3174.406	 259.430	 270.964	53.141	     0.000	    38.471	  3736.263	     0.000	     0.000	     0.000	     0.923
346.00	 1006.139	-5741.700	 3174.347	 259.332	 274.188	52.899	     0.000	    38.471	  3736.263	     0.000	     0.000	     0.000	     0.923
347.00	 1005.874	-5741.657	 3174.284	 259.225	 277.668	52.656	     0.000	    38.471	  3736.263	     0.000	     0.000	     0.000	     0.923
348.00	 1005.607	-5741.607	 3174.217	 259.109	 281.395	52.414	     0.000	    38.471	  3736.263	     0.000	     0.000	     0.000	     0.923
349.00	 1005.339	-5741.548	 3174.145	 258.984	 285.360	52.172	     0.000	    38.471	  3736.263	     0.000	     0.000	     0.000	     0.923
350.00	 1005.069	-5741.482	 3174.070	 258.850	 289.553	51.930	     0.000	    38.471	  3736.263	     0.000	     0.000	     0.000	     0.924
351.00	 1004.798	-5741.408	 3173.989	 258.707	 293.963	51.687	     0.000	    38.471	  3736.263	     0.000	     0.000	     0.000	     0.924
352.00	 1004.526	-5741.326	 3173.905	 258.555	 298.582	51.445	     0.000	    38.471	  3736.263	     0.000	     0.000	     0.000	     0.924
353.00	 1004.252	-5741.236	 3173.816	 258.394	 303.400	51.203	     0.000	    38.471	  3736.263	     0.000	     0.000	     0.000	     0.924
354.00	 1003.977	-5741.138	 3173.723	 258.224	 308.407	50.961	     0.000	    38.471	  3736.263	     0.000	     0.000	     0.000	     0.924
355.00	 1003.701	-5741.033	 3173.625	 258.045	 313.595	50.719	     0.000	    38.471	  3736.263	     0.000	     0.000	     0.000	     0.924
356.00	 1003.423	-5740.920	 3173.523	 257.856	 318.955	50.477	     0.000	    38.471	  3736.263	     0.000	     0.000	     0.000	     0.924
357.00	 1003.144	-5740.798	 3173.417	 257.659	 324.478	50.235	     0.000	    38.471	  3736.263	     0.000	     0.000	     0.000	     0.924
358.00	 1002.863	-5740.669	 3173.307	 257.452	 330.157	49.993	     0.000	    38.471	  3736.263	     0.000	     0.000	     0.000	     0.924
359.00	 1002.581	-5740.533	 3173.192	 257.237	 335.983	49.751	     0.000	    38.471	  3736.263	     0.000	     0.000	     0.000	     0.924
360.00	 1002.298	-5740.388	 3173.073	 257.013	 341.949	49.509	     0.000	    38.471	  3736.263	     0.000	     0.000	     0.000	     0.924
361.00	 1002.014	-5740.235	 3172.949	 256.779	 348.048	49.267	     0.000	    38.471	  3736.263	     0.000	     0.000	     0.000	     0.924
362.00	 1001.728	-5740.075	 3172.821	 256.536	 354.272	49.025	     0.000	    38.471	  3736.263	     0.000	     0.000	     0.000	     0.924
363.00	 1001.441	-5739.907	 3172.689	 256.285	 360.617	48.783	     0.000	    38.471	  3736.263	     0.000	     0.000	     0.000	     0.924
364.00	 1001.152	-5739.731	 3172.553	 256.024	 367.075	48.542	     0.000	    38.471	  3736.263	     0.000	     0.000	     0.000	     0.924
365.00	 1000.863	-5739.547	 3172.412	 255.754	 373.640	48.300	     0.000	    38.471	  3736.263	     0.000	     0.000	     0.000	     0.924
366.00	 1000.571	-5739.355	 3172.267	 255.476	 380.308	48.058	     0.000	    38.471	  3736.263	     0.000	     0.000	     0.000	     0.924
367.00	 1000.279	-5739.155	 3172.117	 255.188	 387.072	47.816	     0.000	    38.471	  3736.263	     0.000	     0.000	     0.000	     0.925
368.00	  999.985	-5738.948	 3171.964	 254.891	 393.929	47.575	     0.000	    38.471	  3736.263	     0.000	     0.000	     0.000	     0.925
369.00	  999.690	-5738.733	 3171.806	 254.585	 400.872	47.333	     0.000	    38.471	  3736.263	     0.000	     0.000	     0.000	     0.925
370.00	  999.394	-5738.509	 3171.643	 254.270	 407.899	47.092	     0.000	    38.471	  3736.263	     0.000	     0.000	     0.000	     0.925
371.00	  999.096	-5738.278	 3171.476	 253.946	 415.005	46.850	     0.000	    38.471	  3736.263	     0.000	     0.000	     0.000	     0.925
372.00	  998.797	-5738.040	 3171.305	 253.613	 422.185	46.609	     0.000	    38.471	  3736.263	     0.000	     0.000	     0.000	     0.925
373.00	  998.496	-5737.793	 3171.130	 253.271	 429.437	46.367	     0.000	    38.471	  3736.263	     0.000	     0.000	     0.000	     0.925
374.00	  998.194	-5737.538	 3170.950	 252.919	 436.757	46.126	     0.000	    38.471	  3736.263	     0.000	     0.000	     0.000	     0.925
375.00	  997.891	-5737.276	 3170.766	 252.559	 444.141	45.885	     0.000	    38.471	  3736.263	     0.000	     0.000	     0.000	     0.925
376.00	  997.587	-5737.006	 3170.577	 252.190	 451.586	45.643	     0.000	    38.471	  3736.263	     0.000	     0.000	     0.000	     0.925
377.00	  997.281	-5736.727	 3170.385	 251.811	 459.090	45.402	     0.000	    38.471	  3736.263	     0.000	     0.000	     0.000	     0.925
378.00	  996.974	-5736.441	 3170.187	 251.424	 466.650	45.161	     0.000	    38.471	  3736.263	     0.000	     0.000	     0.000	     0.926
379.00	  996.666	-5736.147	 3169.986	 251.027	 474.263	44.920	     0.000	    38.471	  3736.263	     0.000	     0.000	     0.000	     0.926
380.00	  996.356	-5735.846	 3169.780	 250.622	 481.927	44.679	     0.000	    38.471	  3736.263	     0.000	     0.000	     0.000	     0.926
381.00	  996.045	-5735.536	 3169.570	 250.207	 489.639	44.438	     0.000	    38.471	  3736.263	     0.000	     0.000	     0.000	     0.926
382.00	  995.733	-5735.219	 3169.355	 249.783	 497.397	44.197	     0.000	    38.471	  3736.263	     0.000	     0.000	     0.000	     0.926
383.00	  995.419	-5734.893	 3169.137	 249.350	 505.200	43.956	     0.000	    38.471	  3736.263	     0.000	     0.000	     0.000	     0.926
384.00	  995.104	-5734.560	 3168.913	 248.909	 513.044	43.715	     0.000	    38.471	  3736.263	     0.000	     0.000	     0.000	     0.926
385.00	  994.788	-5734.219	 3168.686	 248.458	 520.930	43.474	     0.000	    38.471	  3736.263	     0.000	     0.000	     0.000	     0.926
386.00	  994.471	-5733.870	 3168.454	 247.998	 528.854	43.234	     0.000	    38.471	  3736.263	     0.000	     0.000	     0.000	     0.927
387.00	  994.152	-5733.513	 3168.218	 247.528	 536.815	42.993	     0.000	    38.471	  3736.263	     0.000	     0.000	     0.000	     0.927
388.00	  993.832	-5733.149	 3167.977	 247.050	 544.812	42.753	     0.000	    38.471	  3736.263	     0.000	     0.000	     0.000	     0.927
389.00	  993.510	-5732.776	 3167.733	 246.563	 552.843	42.512	     0.000	    38.471	  3736.263	     0.000	     0.000	     0.000	     0.927
390.00	  993.187	-5732.396	 3167.483	 246.067	 560.906	42.272	     0.000	    38.471	  3736.263	     0.000	     0.000	     0.000	     0.927
391.00	  992.863	-5732.007	 3167.230	 245.561	 569.001	42.031	     0.000	    38.471	  3736.263	     0.000	     0.000	     0.000	     0.927
392.00	  992.538	-5731.611	 3166.972	 245.047	 577.126	41.791	     0.000	    38.471	  3736.263	     0.000	     0.000	     0.000	     0.927
393.00	  992.211	-5731.207	 3166.710	 244.523	 585.281	41.550	     0.000	    38.471	  3736.263	     0.000	     0.000	     0.000	     0.928
394.00	  991.883	-5730.795	 3166.443	 243.991	 593.463	41.310	     0.000	    38.471	  3736.263	     0.000	     0.000	     0.000	     0.928
395.00	  991.554	-5730.375	 3166.172	 243.449	 601.672	41.070	     0.000	    38.471	  3736.263	     0.000	     0.000	     0.000	     0.928
396.00	  991.224	-5729.948	 3165.897	 242.898	 609.907	40.830	     0.000	    38.471	  3736.263	     0.000	     0.000	     0.000	     0.928
397.00	  990.892	-5729.512	 3165.617	 242.338	 618.166	40.590	     0.000	    38.471	  3736.263	     0.000	     0.000	     0.000	     0.928
398.00	  990.559	-5729.069	 3165.333	 241.769	 626.450	40.350	     0.000	    38.471	  3736.263	     0.000	     0.000	     0.000	     0.928
399.00	  990.224	-5728.617	 3165.045	 241.191	 634.757	40.110	     0.000	    38.471	  3736.263	     0.000	     0.000	     0.000	     0.928
400.00	  989.888	-5728.158	 3164.752	 240.604	 643.087	39.871	     0.000	    38.471	  3736.263	     0.000	     0.000	     0.000	     0.929
401.00	  989.552	-5727.691	 3164.455	 240.008	 651.438	39.631	     0.000	    38.471	  3736.263	     0.000	     0.000	     0.000	     0.929
402.00	  989.213	-5727.216	 3164.154	 239.402	 659.809	39.391	     0.000	    38.471	  3736.263	     0.000	     0.000	     0.000	     0.929
403.00	  988.874	-5726.733	 3163.848	 238.788	 668.201	39.152	     0.000	    38.471	  3736.263	     0.000	     0.000	     0.000	     0.929
404.00	  988.533	-5726.242	 3163.538	 238.164	 676.613	38.912	     0.000	    38.471	  3736.263	     0.000	     0.000	     0.000	     0.929
405.00	  988.191	-5725.743	 3163.224	 237.532	 685.043	38.673	     0.000	    38.471	  3736.263	     0.000	     0.000	     0.000	     0.929
406.00	  987.847	-5725.236	 3162.905	 236.890	 693.492	38.433	     0.000	    38.471	  3736.263	     0.000	     0.000	     0.000	     0.930
407.00	  987.503	-5724.722	 3162.582	 236.239	 701.958	38.194	     0.000	    38.471	  3736.263	     0.000	     0.000	     0.000	     0.930
408.00	  987.157	-5724.199	 3162.254	 235.579	 710.442	37.955	     0.000	    38.471	  3736.263	     0.000	     0.000	     0.000	     0.930
409.00	  986.809	-5723.669	 3161.922	 234.910	 718.942	37.716	     0.000	    38.471	  3736.263	     0.000	     0.000	     0.000	     0.930
410.00	  986.461	-5723.131	 3161.586	 234.232	 727.459	37.477	     0.000	    38.471	  3736.263	     0.000	     0.000	     0.000	     0.930
411.00	  986.111	-5722.585	 3161.246	 233.545	 735.991	37.238	     0.000	    38.471	  3736.263	     0.000	     0.000	     0.000	     0.931
412.00	  985.760	-5722.031	 3160.901	 232.848	 744.538	37.000	     0.000	    38.471	  3736.263	     0.000	     0.000	     0.000	     0.931
413.00	  985.408	-5721.469	 3160.551	 232.143	 753.101	36.761	     0.000	    38.471	  3736.263	     0.000	     0.000	     0.000	     0.931
414.00	  985.054	-5720.899	 3160.198	 231.428	 761.677	36.522	     0.000	    38.471	  3736.263	     0.000	     0.000	     0.000	     0.931
415.00	  984.699	-5720.321	 3159.840	 230.704	 770.268	36.284	     0.000	    38.471	  3736.263	     0.000	     0.000	     0.000	     0.931
416.00	  984.343	-5719.735	 3159.477	 229.971	 778.872	36.045	     0.000	    38.471	  3736.263	     0.000	     0.000	     0.000	     0.932
417.00	  983.985	-5719.141	 3159.111	 229.229	 787.490	35.807	     0.000	    38.471	  3736.263	     0.000	     0.000	     0.000	     0.932
418.00	  983.627	-5718.540	 3158.740	 228.478	 796.121	35.569	     0.000	    38.471	  3736.263	     0.000	     0.000	     0.000	     0.932
419.00	  983.267	-5717.930	 3158.364	 227.718	 804.764	35.331	     0.000	    38.471	  3736.263	     0.000	     0.000	     0.000	     0.932
420.00	  982.906	-5717.313	 3157.984	 226.949	 813.420	35.093	     0.000	    38.471	  3736.263	     0.000	     0.000	     0.000	     0.932
421.00	  982.543	-5716.687	 3157.600	 226.170	 822.087	34.855	     0.000	    38.471	  3736.263	     0.000	     0.000	     0.000	     0.933
422.00	  982.179	-5716.054	 3157.211	 225.382	 830.767	34.617	     0.000	    38.471	  3736.263	     0.000	     0.000	     0.000	     0.933
423.00	  981.814	-5715.413	 3156.818	 224.586	 839.458	34.380	     0.000	    38.471	  3736.263	     0.000	     0.000	     0.000	     0.933
424.00	  981.448	-5714.764	 3156.421	 223.780	 848.160	34.142	     0.000	    38.471	  3736.263	     0.000	     0.000	     0.000	     0.933
425.00	  981.080	-5714.106	 3156.019	 222.965	 856.874	33.905	     0.000	    38.471	  3736.263	     0.000	     0.000	     0.000	     0.934
426.00	  980.712	-5713.441	 3155.613	 222.140	 865.598	33.667	     0.000	    38.471	  3736.263	     0.000	     0.000	     0.000	     0.934
427.00	  980.342	-5712.768	 3155.203	 221.307	 874.332	33.430	     0.000	    38.471	  3736.263	     0.000	     0.000	     0.000	     0.934
428.00	  979.970	-5712.087	 3154.788	 220.465	 883.077	33.193	     0.000	    38.471	  3736.263	     0.000	     0.000	     0.000	     0.934
429.00	  979.598	-5711.398	 3154.369	 219.613	 891.832	32.956	     0.000	    38.471	  3736.263	     0.000	     0.000	     0.000	     0.935
430.00	  979.224	-5710.702	 3153.945	 218.752	 900.597	32.719	     0.000	    38.471	  3736.263	     0.000	     0.000	     0.000	     0.935
431.00	  978.849	-5709.997	 3153.517	 217.882	 909.371	32.483	     0.000	    38.471	  3736.263	     0.000	     0.000	     0.000	     0.935
432.00	  978.472	-5709.284	 3153.085	 217.003	 918.156	32.246	     0.000	    38.471	  3736.263	     0.000	     0.000	     0.000	     0.935
433.00	  978.095	-5708.563	 3152.648	 216.115	 926.949	32.010	     0.000	    38.471	  3736.263	     0.000	     0.000	     0.000	     0.936
434.00	  977.716	-5707.835	 3152.207	 215.217	 935.752	31.773	     0.000	    38.471	  3736.263	     0.000	     0.000	     0.000	     0.936
435.00	  977.336	-5707.098	 3151.762	 214.311	 944.564	31.537	     0.000	    38.471	  3736.263	     0.000	     0.000	     0.000	     0.936
436.00	  976.955	-5706.353	 3151.312	 213.395	 953.384	31.301	     0.000	    38.471	  3736.263	     0.000	     0.000	     0.000	     0.936
437.00	  976.572	-5705.601	 3150.858	 212.470	 962.214	31.065	     0.000	    38.471	  3736.263	     0.000	     0.000	     0.000	     0.937
438.00	  976.188	-5704.840	 3150.399	 211.536	 971.052	30.830	     0.000	    38.471	  3736.263	     0.000	     0.000	     0.000	     0.937
439.00	  975.803	-5704.072	 3149.936	 210.593	 979.898	30.594	     0.000	    38.471	  3736.263	     0.000	     0.000	     0.000	     0.937
440.00	  975.417	-5703.295	 3149.469	 209.640	 988.753	30.359	     0.000	    38.471	  3736.263	     0.000	     0.000	     0.000	     0.937
441.00	  975.029	-5702.511	 3148.997	 208.679	 997.616	30.124	     0.000	    38.471	  3736.263	     0.000	     0.000	     0.000	     0.938
442.00	  974.641	-5701.718	 3148.521	 207.708	1006.487	29.888	     0.000	    38.471	  3736.263	     0.000	     0.000	     0.000	     0.938
443.00	  974.251	-5700.918	 3148.040	 206.728	1015.366	29.654	     0.000	    38.471	  3736.263	     0.000	     0.000	     0.000	     0.938
444.00	  973.859	-5700.109	 3147.555	 205.739	1024.253	29.419	     0.000	    38.471	  3736.263	     0.000	     0.000	     0.000	     0.938
445.00	  973.467	-5699.293	 3147.066	 204.740	1033.148	29.184	     0.000	    38.471	  3736.263	     0.000	     0.000	     0.000	     0.939
446.00	  973.073	-5698.469	 3146.572	 203.733	1042.050	28.950	     0.000	    38.471	  3736.263	     0.000	     0.000	     0.000	     0.939
447.00	  972.678	-5697.636	 3146.074	 202.716	1050.960	28.715	     0.000	    38.471	  3736.263	     0.000	     0.000	     0.000	     0.939
448.00	  972.282	-5696.796	 3145.571	 201.690	1059.878	28.481	     0.000	    38.471	  3736.263	     0.000	     0.000	     0.000	     0.940
449.00	  971.884	-5695.947	 3145.064	 200.655	1068.803	28.247	     0.000	    38.471	  3736.263	     0.000	     0.000	     0.000	     0.940
450.00	  971.486	-5695.091	 3144.553	 199.610	1077.735	28.014	     0.000	    38.471	  3736.263	     0.000	     0.000	     0.000	     0.940
451.00	  971.086	-5694.227	 3144.037	 198.557	1086.675	27.780	     0.000	    38.471	  3736.263	     0.000	     0.000	     0.000	     0.940
452.00	  970.685	-5693.354	 3143.517	 197.494	1095.621	27.547	     0.000	    38.471	  3736.263	     0.000	     0.000	     0.000	     0.941
453.00	  970.282	-5692.474	 3142.993	 196.422	1104.575	27.314	     0.000	    38.471	  3736.263	     0.000	     0.000	     0.000	     0.941
454.00	  969.879	-5691.585	 3142.464	 195.341	1113.536	27.081	     0.000	    38.471	  3736.263	     0.000	     0.000	     0.000	     0.941
455.00	  969.474	-5690.689	 3141.930	 194.250	1122.503	26.848	     0.000	    38.471	  3736.263	     0.000	     0.000	     0.000	     0.942
456.00	  969.068	-5689.784	 3141.392	 193.151	1131.478	26.616	     0.000	    38.471	  3736.263	     0.000	     0.000	     0.000	     0.942
457.00	  968.661	-5688.872	 3140.850	 192.042	1140.459	26.383	     0.000	    38.471	  3736.263	     0.000	     0.000	     0.000	     0.942
458.00	  968.252	-5687.952	 3140.303	 190.924	1149.447	26.151	     0.000	    38.471	  3736.263	     0.000	     0.000	     0.000	     0.943
459.00	  967.843	-5687.023	 3139.752	 189.796	1158.442	25.919	     0.000	    38.471	  3736.263	     0.000	     0.000	     0.000	     0.943
460.00	  967.432	-5686.086	 3139.197	 188.660	1167.444	25.688	     0.000	    38.471	  3736.263	     0.000	     0.000	     0.000	     0.943
461.00	  967.020	-5685.142	 3138.637	 187.514	1176.452	25.456	     0.000	    38.471	  3736.263	     0.000	     0.000	     0.000	     0.944
462.00	  966.606	-5684.189	 3138.073	 186.359	1185.467	25.225	     0.000	    38.471	  3736.263	     0.000	     0.000	     0.000	     0.944
463.00	  966.192	-5683.229	 3137.504	 185.195	1194.488	24.994	     0.000	    38.471	  3736.263	     0.000	     0.000	     0.000	     0.944
464.00	  965.776	-5682.260	 3136.931	 184.021	1203.516	24.763	     0.000	    38.471	  3736.263	     0.000	     0.000	     0.000	     0.945
465.00	  965.359	-5681.283	 3136.353	 182.838	1212.550	24.533	     0.000	    38.471	  3736.263	     0.000	     0.000	     0.000	     0.945
466.00	  964.941	-5680.298	 3135.771	 181.646	1221.590	24.303	     0.000	    38.471	  3736.263	     0.000	     0.000	     0.000	     0.945
467.00	  964.521	-5679.305	 3135.185	 180.445	1230.637	24.073	     0.000	    38.471	  3736.263	     0.000	     0.000	     0.000	     0.946
468.00	  964.101	-5678.305	 3134.594	 179.234	1239.690	23.843	     0.000	    38.471	  3736.263	     0.000	     0.000	     0.000	     0.946
469.00	  963.679	-5677.296	 3133.999	 178.015	1248.749	23.614	     0.000	    38.471	  3736.263	     0.000	     0.000	     0.000	     0.946
470.00	  963.256	-5676.279	 3133.399	 176.786	1257.815	23.385	     0.000	    38.471	  3736.263	     0.000	     0.000	     0.000	     0.947
471.00	  962.831	-5675.254	 3132.795	 175.547	1266.887	23.156	     0.000	    38.471	  3736.263	     0.000	     0.000	     0.000	     0.947
472.00	  962.406	-5674.220	 3132.186	 174.299	1275.965	22.928	     0.000	    38.471	  3736.263	     0.000	     0.000	     0.000	     0.947
473.00	  961.979	-5673.179	 3131.573	 173.043	1285.049	22.700	     0.000	    38.471	  3736.263	     0.000	     0.000	     0.000	     0.948
474.00	  961.551	-5672.130	 3130.956	 171.776	1294.140	22.472	     0.000	    38.471	  3736.263	     0.000	     0.000	     0.000	     0.948
475.00	  961.122	-5671.072	 3130.334	 170.501	1303.236	22.244	     0.000	    38.471	  3736.263	     0.000	     0.000	     0.000	     0.949
476.00	  960.692	-5670.007	 3129.707	 169.216	1312.339	22.017	     0.000	    38.471	  3736.263	     0.000	     0.000	     0.000	     0.949
477.00	  960.260	-5668.933	 3129.077	 167.922	1321.447	21.790	     0.000	    38.471	  3736.263	     0.000	     0.000	     0.000	     0.949
478.00	  959.828	-5667.852	 3128.441	 166.619	1330.562	21.564	     0.000	    38.471	  3736.263	     0.000	     0.000	     0.000	     0.950
479.00	  959.394	-5666.762	 3127.802	 165.306	1339.683	21.338	     0.000	    38.471	  3736.263	     0.000	     0.000	     0.000	     0.950
480.00	  958.959	-5665.664	 3127.158	 163.984	1348.809	21.112	     0.000	    38.471	  3736.263	     0.000	     0.000	     0.000	     0.950
481.00	  958.522	-5664.558	 3126.509	 162.653	1357.942	20.887	     0.000	    38.471	  3736.263	     0.000	     0.000	     0.000	     0.951
482.00	  958.085	-5663.444	 3125.856	 161.312	1367.081	20.662	     0.000	    38.471	  3736.263	     0.000	     0.000	     0.000	     0.951
483.00	  957.646	-5662.322	 3125.198	 159.962	1376.226	20.437	     0.000	    38.471	  3736.263	     0.000	     0.000	     0.000	     0.952
484.00	  957.206	-5661.192	 3124.536	 158.603	1385.376	20.213	     0.000	    38.471	  3736.263	     0.000	     0.000	     0.000	     0.952
485.00	  956.765	-5660.054	 3123.870	 157.234	1394.533	19.990	     0.000	    38.471	  3736.263	     0.000	     0.000	     0.000	     0.952
486.00	  956.323	-5658.907	 3123.199	 155.857	1403.695	19.766	     0.000	    38.471	  3736.263	     0.000	     0.000	     0.000	     0.953
487.00	  955.879	-5657.753	 3122.524	 154.469	1412.864	19.544	     0.000	    38.471	  3736.263	     0.000	     0.000	     0.000	     0.953
488.00	  955.435	-5656.590	 3121.844	 153.073	1422.038	19.321	     0.000	    38.471	  3736.263	     0.000	     0.000	     0.000	     0.954
489.00	  954.989	-5655.419	 3121.160	 151.667	1431.218	19.099	     0.000	    38.471	  3736.263	     0.000	     0.000	     0.000	     0.954
490.00	  954.542	-5654.240	 3120.471	 150.252	1440.404	18.878	     0.000	    38.471	  3736.263	     0.000	     0.000	     0.000	     0.954
491.00	  954.093	-5653.053	 3119.778	 148.827	1449.596	18.657	     0.000	    38.471	  3736.263	     0.000	     0.000	     0.000	     0.955
492.00	  953.644	-5651.858	 3119.080	 147.393	1458.794	18.437	     0.000	    38.471	  3736.263	     0.000	     0.000	     0.000	     0.955
493.00	  953.193	-5650.654	 3118.378	 145.950	1467.998	18.217	     0.000	    38.471	  3736.263	     0.000	     0.000	     0.000	     0.956
494.00	  952.741	-5649.443	 3117.671	 144.497	1477.208	17.998	     0.000	    38.471	  3736.263	     0.000	     0.000	     0.000	     0.956
495.00	  952.288	-5648.223	 3116.960	 143.035	1486.424	17.779	     0.000	    38.471	  3736.263	     0.000	     0.000	     0.000	     0.957
496.00	  951.834	-5646.995	 3116.245	 141.564	1495.645	17.561	     0.000	    38.471	  3736.263	     0.000	     0.000	     0.000	     0.957
497.00	  951.379	-5645.759	 3115.525	 140.083	1504.872	17.344	     0.000	    38.471	  3736.263	     0.000	     0.000	     0.000	     0.957
498.00	  950.922	-5644.515	 3114.800	 138.593	1514.106	17.127	     0.000	    38.471	  3736.263	     0.000	     0.000	     0.000	     0.958
499.00	  950.464	-5643.263	 3114.071	 137.093	1523.345	16.911	     0.000	    38.471	  3736.263	     0.000	     0.000	     0.000	     0.958
500.00	  950.006	-5642.002	 3113.337	 135.585	1532.590	16.695	     0.000	    38.471	  3736.263	     0.000	     0.000	     0.000	     0.959
501.00	  949.545	-5640.734	 3112.599	 134.066	1541.841	16.481	     0.000	    38.471	  3736.263	     0.000	     0.000	     0.000	     0.959
502.00	  949.084	-5639.457	 3111.857	 132.539	1551.098	16.267	     0.000	    38.471	  3736.263	     0.000	     0.000	     0.000	     0.960
503.00	  948.622	-5638.172	 3111.110	 131.002	1560.360	16.054	     0.000	    38.471	  3736.263	     0.000	     0.000	     0.000	     0.960
504.00	  948.158	-5636.879	 3110.358	 129.455	1569.629	15.841	     0.000	    38.471	  3736.263	     0.000	     0.000	     0.000	     0.961
505.00	  947.693	-5635.577	 3109.602	 127.899	1578.904	15.630	     0.000	    38.471	  3736.263	     0.000	     0.000	     0.000	     0.961
506.00	  947.227	-5634.268	 3108.842	 126.334	1588.184	15.419	     0.000	    38.471	  3736.263	     0.000	     0.000	     0.000	     0.961
507.00	  946.760	-5632.950	 3108.077	 124.759	1597.471	15.209	     0.000	    38.471	  3736.263	     0.000	     0.000	     0.000	     0.962
508.00	  946.292	-5631.624	 3107.307	 123.175	1606.763	15.000	     0.000	    38.471	  3736.263	     0.000	     0.000	     0.000	     0.962
509.00	  945.822	-5630.290	 3106.533	 121.582	1616.061	14.792	     0.000	    38.471	  3736.263	     0.000	     0.000	     0.000	     0.963
510.00	  945.351	-5628.947	 3105.755	 119.979	1625.365	14.585	     0.000	    38.471	  3736.263	     0.000	     0.000	     0.000	     0.963
511.00	  944.886	-5627.616	 3104.983	 118.388	1595.034	14.382	     0.000	    37.659	  3775.879	     0.000	     0.000	     1.000	     3.120
512.00	  944.432	-5626.310	 3104.226	 116.827	1564.186	14.184	     0.000	    36.847	  3816.016	     0.000	     0.000	     1.000	     3.173
513.00	  943.988	-5625.030	 3103.484	 115.297	1532.808	13.993	     0.000	    36.034	  3856.690	     0.000	     0.000	     1.000	     3.228
514.00	  943.554	-5623.775	 3102.757	 113.797	1500.884	13.808	     0.000	    35.222	  3897.913	     0.000	     0.000	     1.000	     3.284
515.00	  943.131	-5622.546	 3102.046	 112.330	1468.399	13.629	     0.000	    34.410	  3939.702	     0.000	     0.000	     1.000	     3.342
516.00	  942.719	-5621.344	 3101.350	 110.895	1435.339	13.456	     0.000	    33.597	  3982.072	     0.000	     0.000	     1.000	     3.402
517.00	  942.318	-5620.169	 3100.671	 109.492	1401.685	13.289	     0.000	    32.785	  4025.040	     0.000	     0.000	     1.000	     3.463
518.00	  941.928	-5619.022	 3100.007	 108.123	1367.421	13.128	     0.000	    31.973	  4068.622	     0.000	     0.000	     1.000	     3.526
519.00	  941.549	-5617.904	 3099.360	 106.788	1332.530	12.973	     0.000	    31.161	  4112.837	     0.000	     0.000	     1.000	     3.591
520.00	  941.182	-5616.814	 3098.731	 105.488	1296.991	12.824	     0.000	    30.348	  4157.703	     0.000	     0.000	     1.000	     3.657
521.00	  940.826	-5615.754	 3098.118	 104.223	1260.787	12.681	     0.000	    29.536	  4203.239	     0.000	     0.000	     1.000	     3.726
522.00	  940.481	-5614.723	 3097.523	 102.994	1223.895	12.544	     0.000	    28.724	  4249.466	     0.000	     0.000	     1.000	     3.797
523.00	  940.148	-5613.723	 3096.946	 101.802	1186.296	12.412	     0.000	    27.911	  4296.405	     0.000	     0.000	     1.000	     3.870
524.00	  939.828	-5612.755	 3096.387	 100.648	1147.965	12.287	     0.000	    27.099	  4344.079	     0.000	     0.000	     1.000	     3.946
525.00	  939.519	-5611.818	 3095.846	  99.531	1108.881	12.168	     0.000	    26.287	  4392.510	     0.000	     0.000	     1.000	     4.024
526.00	  939.222	-5610.914	 3095.325	  98.454	1069.018	12.054	     0.000	    25.475	  4441.724	     0.000	     0.000	     1.000	     4.105
527.00	  938.938	-5610.043	 3094.823	  97.416	1028.350	11.946	     0.000	    24.662	  4491.746	     0.000	     0.000	     1.000	     4.188
528.00	  938.666	-5609.206	 3094.341	  96.419	 986.850	11.844	     0.000	    23.850	  4542.602	     0.000	     0.000	     1.000	     4.274
529.00	  938.407	-5608.404	 3093.879	  95.463	 944.490	11.748	     0.000	    23.038	  4594.322	     0.000	     0.000	     1.000	     4.363
530.00	  938.160	-5607.637	 3093.437	  94.550	 901.240	11.657	     0.000	    22.225	  4646.935	     0.000	     0.000	     1.000	     4.455
531.00	  937.927	-5606.906	 3093.017	  93.680	 857.069	11.572	     0.000	    21.413	  4700.473	     0.000	     0.000	     1.000	     4.551
532.00	  937.707	-5606.212	 3092.618	  92.854	 811.942	11.493	     0.000	    20.601	  4754.968	     0.000	     0.000	     1.000	     4.650
533.00	  937.500	-5605.556	 3092.241	  92.073	 765.825	11.419	     0.000	    19.789	  4810.455	     0.000	     0.000	     1.000	     4.752
534.00	  937.306	-5604.939	 3091.886	  91.339	 718.682	11.351	     0.000	    18.976	  4866.972	     0.000	     0.000	     1.000	     4.859
535.00	  937.126	-5604.362	 3091.555	  90.652	 670.472	11.289	     0.000	    18.164	  4924.556	     0.000	     0.000	     1.000	     4.970
536.00	  936.951	-5603.795	 3091.229	  89.981	 679.905	11.229	     0.000	    18.164	  4924.556	     0.000	     0.000	     0.000	     0.972
537.00	  936.775	-5603.220	 3090.900	  89.300	 689.343	11.169	     0.000	    18.164	  4924.556	     0.000	     0.000	     0.000	     0.973
538.00	  936.597	-5602.637	 3090.566	  88.610	 698.784	11.110	     0.000	    18.164	  4924.556	     0.000	     0.000	     0.000	     0.973
539.00	  936.418	-5602.046	 3090.227	  87.911	 708.229	11.051	     0.000	    18.164	  4924.556	     0.000	     0.000	     0.000	     0.973
540.00	  936.238	-5601.447	 3089.884	  87.202	 717.677	10.992	     0.000	    18.164	  4924.556	     0.000	     0.000	     0.000	     0.973
541.00	  936.057	-5600.839	 3089.536	  86.483	 727.130	10.933	     0.000	    18.164	  4924.556	     0.000	     0.000	     0.000	     0.973
542.00	  935.874	-5600.223	 3089.183	  85.755	 736.586	10.875	     0.000	    18.164	  4924.556	     0.000	     0.000	     0.000	     0.974
543.00	  935.690	-5599.599	 3088.826	  85.017	 746.046	10.817	     0.000	    18.164	  4924.556	     0.000	     0.000	     0.000	     0.974
544.00	  935.505	-5598.966	 3088.465	  84.270	 755.509	10.760	     0.000	    18.164	  4924.556	     0.000	     0.000	     0.000	     0.974
545.00	  935.318	-5598.326	 3088.099	  83.514	 764.977	10.703	     0.000	    18.164	  4924.556	     0.000	     0.000	     0.000	     0.974
546.00	  935.130	-5597.677	 3087.728	  82.747	 774.447	10.646	     0.000	    18.164	  4924.556	     0.000	     0.000	     0.000	     0.975
547.00	  934.941	-5597.019	 3087.353	  81.972	 783.922	10.589	     0.000	    18.164	  4924.556	     0.000	     0.000	     0.000	     0.975
548.00	  934.750	-5596.354	 3086.973	  81.186	 793.399	10.533	     0.000	    18.164	  4924.556	     0.000	     0.000	     0.000	     0.975
549.00	  934.559	-5595.680	 3086.589	  80.392	 802.881	10.477	     0.000	    18.164	  4924.556	     0.000	     0.000	     0.000	     0.975
550.00	  934.365	-5594.998	 3086.200	  79.587	 812.366	10.422	     0.000	    18.164	  4924.556	     0.000	     0.000	     0.000	     0.975
551.00	  934.171	-5594.307	 3085.807	  78.774	 821.854	10.367	     0.000	    18.164	  4924.556	     0.000	     0.000	     0.000	     0.976
552.00	  933.976	-5593.609	 3085.409	  77.950	 831.346	10.312	     0.000	    18.164	  4924.556	     0.000	     0.000	     0.000	     0.976
553.00	  933.779	-5592.902	 3085.006	  77.117	 840.842	10.257	     0.000	    18.164	  4924.556	     0.000	     0.000	     0.000	     0.976
554.00	  933.580	-5592.187	 3084.599	  76.275	 850.341	10.203	     0.000	    18.164	  4924.556	     0.000	     0.000	     0.000	     0.976
555.00	  933.381	-5591.463	 3084.187	  75.423	 859.843	10.149	     0.000	    18.164	  4924.556	     0.000	     0.000	     0.000	     0.977
556.00	  933.180	-5590.731	 3083.771	  74.561	 869.349	10.096	     0.000	    18.164	  4924.556	     0.000	     0.000	     0.000	     0.977
557.00	  932.978	-5589.991	 3083.350	  73.690	 878.859	10.043	     0.000	    18.164	  4924.556	     0.000	     0.000	     0.000	     0.977
558.00	  932.775	-5589.243	 3082.924	  72.809	 888.372	9.990	     0.000	    18.164	  4924.556	     0.000	     0.000	     0.000	     0.978
559.00	  932.571	-5588.486	 3082.494	  71.919	 897.888	9.938	     0.000	    18.164	  4924.556	     0.000	     0.000	     0.000	     0.978
560.00	  932.365	-5587.721	 3082.060	  71.019	 907.408	9.886	     0.000	    18.164	  4924.556	     0.000	     0.000	     0.000	     0.978
561.00	  932.158	-5586.948	 3081.621	  70.110	 916.932	9.835	     0.000	    18.164	  4924.556	     0.000	     0.000	     0.000	     0.978
562.00	  931.949	-5586.166	 3081.177	  69.191	 926.459	9.784	     0.000	    18.164	  4924.556	     0.000	     0.000	     0.000	     0.979
563.00	  931.740	-5585.376	 3080.728	  68.262	 935.989	9.733	     0.000	    18.164	  4924.556	     0.000	     0.000	     0.000	     0.979
564.00	  931.529	-5584.578	 3080.275	  67.324	 945.523	9.683	     0.000	    18.164	  4924.556	     0.000	     0.000	     0.000	     0.979
565.00	  931.317	-5583.771	 3079.818	  66.377	 955.061	9.633	     0.000	    18.164	  4924.556	     0.000	     0.000	     0.000	     0.979
566.00	  931.104	-5582.956	 3079.356	  65.419	 964.602	9.584	     0.000	    18.164	  4924.556	     0.000	     0.000	     0.000	     0.980
567.00	  930.889	-5582.133	 3078.889	  64.453	 974.147	9.535	     0.000	    18.164	  4924.556	     0.000	     0.000	     0.000	     0.980
568.00	  930.673	-5581.302	 3078.418	  63.476	 983.695	9.486	     0.000	    18.164	  4924.556	     0.000	     0.000	     0.000	     0.980
569.00	  930.456	-5580.462	 3077.942	  62.490	 993.247	9.438	     0.000	    18.164	  4924.556	     0.000	     0.000	     0.000	     0.981
570.00	  930.237	-5579.614	 3077.461	  61.495	1002.802	9.390	     0.000	    18.164	  4924.556	     0.000	     0.000	     0.000	     0.981
571.00	  930.018	-5578.757	 3076.976	  60.489	1012.361	9.343	     0.000	    18.164	  4924.556	     0.000	     0.000	     0.000	     0.981
572.00	  929.797	-5577.892	 3076.487	  59.475	1021.923	9.296	     0.000	    18.164	  4924.556	     0.000	     0.000	     0.000	     0.982
573.00	  929.574	-5577.019	 3075.992	  58.450	1031.490	9.250	     0.000	    18.164	  4924.556	     0.000	     0.000	     0.000	     0.982
574.00	  929.351	-5576.138	 3075.493	  57.416	1041.059	9.204	     0.000	    18.164	  4924.556	     0.000	     0.000	     0.000	     0.982
575.00	  929.126	-5575.248	 3074.990	  56.373	1050.633	9.159	     0.000	    18.164	  4924.556	     0.000	     0.000	     0.000	     0.983
576.00	  928.900	-5574.350	 3074.482	  55.319	1060.210	9.114	     0.000	    18.164	  4924.556	     0.000	     0.000	     0.000	     0.983
577.00	  928.673	-5573.443	 3073.969	  54.257	1069.791	9.069	     0.000	    18.164	  4924.556	     0.000	     0.000	     0.000	     0.983
578.00	  928.445	-5572.528	 3073.452	  53.184	1079.375	9.025	     0.000	    18.164	  4924.556	     0.000	     0.000	     0.000	     0.983
579.00	  928.215	-5571.605	 3072.930	  52.102	1088.963	8.982	     0.000	    18.164	  4924.556	     0.000	     0.000	     0.000	     0.984
580.00	  927.984	-5570.673	 3072.404	  51.010	1098.555	8.939	     0.000	    18.164	  4924.556	     0.000	     0.000	     0.000	     0.984
581.00	  927.752	-5569.733	 3071.873	  49.909	1108.151	8.896	     0.000	    18.164	  4924.556	     0.000	     0.000	     0.000	     0.984
582.00	  927.518	-5568.785	 3071.337	  48.798	1117.750	8.854	     0.000	    18.164	  4924.556	     0.000	     0.000	     0.000	     0.985
583.00	  927.283	-5567.828	 3070.797	  47.678	1127.353	8.812	     0.000	    18.164	  4924.556	     0.000	     0.000	     0.000	     0.985
584.00	  927.047	-5566.863	 3070.252	  46.548	1136.960	8.771	     0.000	    18.164	  4924.556	     0.000	     0.000	     0.000	     0.986
585.00	  926.810	-5565.890	 3069.702	  45.408	1146.571	8.731	     0.000	    18.164	  4924.556	     0.000	     0.000	     0.000	     0.986
586.00	  926.572	-5564.908	 3069.148	  44.258	1156.186	8.691	     0.000	    18.164	  4924.556	     0.000	     0.000	     0.000	     0.986
587.00	  926.334	-5563.927	 3068.594	  43.109	1147.947	8.652	     0.000	    17.916	  4942.409	     0.000	     0.000	     0.917	     0.845
588.00	  926.099	-5562.953	 3068.045	  41.968	1139.607	8.614	     0.000	    17.667	  4960.366	     0.000	     0.000	     0.917	     0.856
589.00	  925.867	-5561.986	 3067.499	  40.835	1131.164	8.577	     0.000	    17.419	  4978.430	     0.000	     0.000	     0.917	     0.866
590.00	  925.636	-5561.026	 3066.958	  39.711	1122.616	8.541	     0.000	    17.170	  4996.602	     0.000	     0.000	     0.917	     0.877
591.00	  925.409	-5560.073	 3066.420	  38.595	1113.964	8.506	     0.000	    16.922	  5014.883	     0.000	     0.000	     0.917	     0.887
592.00	  925.183	-5559.127	 3065.887	  37.488	1105.205	8.472	     0.000	    16.674	  5033.274	     0.000	     0.000	     0.917	     0.898
593.00	  924.961	-5558.189	 3065.358	  36.389	1096.338	8.439	     0.000	    16.425	  5051.777	     0.000	     0.000	     0.917	     0.909
594.00	  924.741	-5557.258	 3064.834	  35.300	1087.361	8.408	     0.000	    16.177	  5070.392	     0.000	     0.000	     0.917	     0.920
595.00	  924.523	-5556.335	 3064.314	  34.219	1078.273	8.377	     0.000	    15.928	  5089.123	     0.000	     0.000	     0.917	     0.932
596.00	  924.308	-5555.419	 3063.798	  33.148	1069.074	8.347	     0.000	    15.680	  5107.969	     0.000	     0.000	     0.917	     0.943
597.00	  924.095	-5554.511	 3063.286	  32.086	1059.760	8.318	     0.000	    15.432	  5126.932	     0.000	     0.000	     0.917	     0.955
598.00	  923.885	-5553.611	 3062.780	  31.033	1050.331	8.290	     0.000	    15.183	  5146.014	     0.000	     0.000	     0.917	     0.967
599.00	  923.677	-5552.719	 3062.277	  29.990	1040.786	8.263	     0.000	    14.935	  5165.217	     0.000	     0.000	     0.917	     0.979
600.00	  923.472	-5551.835	 3061.780	  28.956	1031.122	8.237	     0.000	    14.687	  5184.541	     0.000	     0.000	     0.917	     0.991
601.00	  923.270	-5550.959	 3061.287	  27.931	1021.338	8.212	     0.000	    14.438	  5203.989	     0.000	     0.000	     0.917	     1.003
602.00	  923.070	-5550.091	 3060.799	  26.917	1011.432	8.187	     0.000	    14.190	  5223.561	     0.000	     0.000	     0.917	     1.015
603.00	  922.873	-5549.232	 3060.315	  25.913	1001.403	8.163	     0.000	    13.941	  5243.260	     0.000	     0.000	     0.917	     1.028
604.00	  922.678	-5548.381	 3059.837	  24.918	 991.249	8.141	     0.000	    13.693	  5263.082	     0.000	     0.000	     0.917	     1.041
605.00	  922.486	-5547.540	 3059.364	  23.935	 979.338	8.118	    21.957	    13.445	  5282.988	     0.000	     0.000	     0.917	     1.232
606.00	  922.297	-5546.709	 3058.896	  22.963	 967.021	8.097	    25.131	    13.196	  5303.017	     0.000	     0.000	     0.917	     1.275
607.00	  922.112	-5545.888	 3058.435	  22.005	 954.257	8.077	    28.670	    12.948	  5323.169	     0.000	     0.000	     0.917	     1.323
608.00	  921.929	-5545.079	 3057.980	  21.059	 940.994	8.057	    32.595	    12.699	  5343.444	     0.000	     0.000	     0.917	     1.376
609.00	  921.749	-5544.281	 3057.532	  20.127	 927.179	8.038	    36.918	    12.451	  5363.842	     0.000	     0.000	     0.917	     1.435
610.00	  921.573	-5543.495	 3057.090	  19.208	 912.759	8.020	    41.416	    12.203	  5384.364	     0.000	     0.000	     0.917	     1.499
611.00	  921.400	-5542.721	 3056.656	  18.305	 897.691	8.003	    46.185	    11.954	  5405.008	     0.000	     0.000	     0.917	     1.568
612.00	  921.231	-5541.961	 3056.229	  17.417	 881.913	7.986	    51.269	    11.706	  5425.774	     0.000	     0.000	     0.917	     1.643
613.00	  921.066	-5541.215	 3055.810	  16.545	 865.359	7.970	    56.633	    11.457	  5446.661	     0.000	     0.000	     0.917	     1.725
614.00	  920.904	-5540.482	 3055.399	  15.690	 847.962	7.955	    62.225	    11.209	  5467.669	     0.000	     0.000	     0.917	     1.814
615.00	  920.746	-5539.766	 3054.996	  14.853	 829.656	7.940	    67.975	    10.961	  5488.795	     0.000	     0.000	     0.917	     1.910
616.00	  920.592	-5539.065	 3054.603	  14.035	 810.376	7.926	    73.791	    10.712	  5510.038	     0.000	     0.000	     0.917	     2.012
617.00	  920.442	-5538.381	 3054.219	  13.236	 790.065	7.913	    79.563	    10.464	  5531.396	     0.000	     0.000	     0.917	     2.120
618.00	  920.297	-5537.715	 3053.846	  12.458	 768.674	7.901	    85.158	    10.215	  5552.868	     0.000	     0.000	     0.917	     2.232
619.00	  920.157	-5537.068	 3053.483	  11.703	 746.170	7.889	    90.427	     9.967	  5574.450	     0.000	     0.000	     0.917	     2.346
620.00	  920.021	-5536.440	 3053.131	  10.970	 722.538	7.878	    95.210	     9.719	  5596.140	     0.000	     0.000	     0.917	     2.462
621.00	  919.890	-5535.833	 3052.791	  10.262	 697.910	7.867	    97.457	     9.470	  5617.936	     0.000	     0.000	     0.917	     2.549
622.00	  919.765	-5535.248	 3052.463	   9.578	 672.496	7.857	    98.596	     9.222	  5639.836	     0.000	     0.000	     0.917	     2.625
623.00	  919.644	-5534.685	 3052.147	   8.921	 646.397	7.848	    98.780	     8.974	  5661.839	     0.000	     0.000	     0.917	     2.690
624.00	  919.529	-5534.144	 3051.844	   8.289	 619.729	7.840	    98.009	     8.725	  5683.943	     0.000	     0.000	     0.917	     2.742
625.00	  919.420	-5533.626	 3051.554	   7.685	 592.626	7.832	    96.312	     8.477	  5706.150	     0.000	     0.000	     0.917	     2.780
626.00	  919.315	-5533.132	 3051.277	   7.108	 565.232	7.824	    93.748	     8.228	  5728.458	     0.000	     0.000	     0.917	     2.803
627.00	  919.216	-5532.661	 3051.014	   6.558	 537.696	7.817	    90.400	     7.980	  5750.867	     0.000	     0.000	     0.917	     2.810
628.00	  919.123	-5532.213	 3050.763	   6.036	 510.168	7.811	    86.373	     7.732	  5773.379	     0.000	     0.000	     0.917	     2.803
629.00	  919.034	-5531.789	 3050.526	   5.541	 482.791	7.805	    81.782	     7.483	  5795.995	     0.000	     0.000	     0.917	     2.781
630.00	  918.951	-5531.389	 3050.302	   5.074	 455.701	7.800	    76.753	     7.235	  5818.716	     0.000	     0.000	     0.917	     2.746
631.00	  918.874	-5531.011	 3050.091	   4.633	 429.159	7.795	    71.441	     6.986	  5841.544	     0.000	     0.000	     0.917	     2.650
632.00	  918.801	-5530.655	 3049.892	   4.218	 403.949	7.791	    66.192	     6.738	  5864.482	     0.000	     0.000	     0.917	     2.508
633.00	  918.732	-5530.321	 3049.705	   3.827	 380.048	7.787	    61.090	     6.490	  5887.534	     0.000	     0.000	     0.917	     2.381
634.00	  918.669	-5530.006	 3049.529	   3.460	 357.320	7.783	    56.147	     6.241	  5910.702	     0.000	     0.000	     0.917	     2.267
635.00	  918.609	-5529.710	 3049.364	   3.115	 335.638	7.780	    51.375	     5.993	  5933.990	     0.000	     0.000	     0.917	     2.166
636.00	  918.553	-5529.432	 3049.208	   2.791	 314.885	7.777	    46.779	     5.744	  5957.401	     0.000	     0.000	     0.917	     2.076
637.00	  918.501	-5529.171	 3049.063	   2.487	 294.953	7.774	    42.365	     5.496	  5980.940	     0.000	     0.000	     0.917	     1.997
638.00	  918.453	-5528.928	 3048.927	   2.203	 275.743	7.772	    38.136	     5.248	  6004.612	     0.000	     0.000	     0.917	     1.928
639.00	  918.408	-5528.700	 3048.800	   1.938	 257.164	7.770	    34.096	     4.999	  6028.420	     0.000	     0.000	     0.917	     1.867
640.00	  918.367	-5528.488	 3048.682	   1.690	 239.130	7.768	    30.248	     4.751	  6052.370	     0.000	     0.000	     0.917	     1.816
641.00	  918.328	-5528.291	 3048.572	   1.461	 221.562	7.767	    26.594	     4.503	  6076.468	     0.000	     0.000	     0.917	     1.771
642.00	  918.293	-5528.109	 3048.470	   1.249	 204.386	7.765	    23.139	     4.254	  6100.718	     0.000	     0.000	     0.917	     1.735
643.00	  918.261	-5527.942	 3048.377	   1.054	 187.534	7.764	    19.886	     4.006	  6125.127	     0.000	     0.000	     0.917	     1.705
644.00	  918.232	-5527.789	 3048.292	   0.876	 170.941	7.763	    16.843	     3.757	  6149.702	     0.000	     0.000	     0.917	     1.681
645.00	  918.206	-5527.650	 3048.215	   0.714	 154.500	7.762	    14.008	     3.509	  6174.447	     0.000	     0.000	     0.917	     1.673
646.00	  918.183	-5527.525	 3048.145	   0.568	 138.106	7.761	    11.383	     3.261	  6199.372	     0.000	     0.000	     0.917	     1.669
647.00	  918.162	-5527.414	 3048.084	   0.439	 121.743	7.761	     8.986	     3.012	  6224.482	     0.000	     0.000	     0.917	     1.667
648.00	  918.145	-5527.318	 3048.030	   0.327	 105.392	7.760	     6.838	     2.764	  6249.787	     0.000	     0.000	     0.917	     1.666
649.00	  918.130	-5527.235	 3047.984	   0.230	  89.030	7.760	     4.954	     2.515	  6275.292	     0.000	     0.000	     0.917	     1.669
650.00	  918.117	-5527.167	 3047.946	   0.150	  72.630	7.760	     3.351	     2.267	  6301.009	     0.000	     0.000	     0.917	     1.674
651.00	  918.108	-5527.113	 3047.916	   0.087	  56.160	7.760	     2.043	     2.019	  6326.944	     0.000	     0.000	     0.917	     1.683
652.00	  918.101	-5527.073	 3047.894	   0.040	  39.586	7.760	     1.045	     1.770	  6353.107	     0.000	     0.000	     0.917	     1.695
653.00	  918.096	-5527.047	 3047.880	   0.009	  22.866	7.760	     0.371	     1.522	  6379.508	     0.000	     0.000	     0.917	     1.712
